AF3,F7,F3,FC5,T7,P7,O1,O2,P8,T8,FC6,F4,F8,AF4,eyeDetectionclass
252,179,166,164,83,38,139,138,135,141,199,132,308,320,0
243,170,175,165,67,39,140,134,113,118,192,130,302,301,0
249,174,178,180,57,33,139,117,107,109,190,135,294,311,0
251,184,180,179,70,31,140,118,126,135,198,146,301,325,0
246,184,172,170,78,39,137,112,113,152,202,147,302,329,0
236,170,156,174,74,40,132,91,97,130,196,133,293,312,0
233,163,149,171,70,35,125,89,116,118,179,111,287,290,0
245,174,145,154,71,32,120,87,103,125,169,105,281,294,0
246,182,141,147,73,34,128,74,68,124,181,119,291,312,0
246,183,142,152,71,31,131,75,81,122,202,127,311,319,0
246,182,134,154,68,25,121,89,104,122,198,117,300,298,0
228,166,108,140,62,29,118,88,84,112,172,96,264,275,0
211,148,85,118,55,35,125,78,70,108,158,84,250,273,0
211,158,93,114,60,35,128,91,103,116,166,99,258,276,0
220,173,110,124,65,38,125,114,123,115,175,120,261,285,0
222,168,101,124,59,38,128,112,104,114,176,110,258,291,0
208,157,84,114,57,34,134,98,97,117,165,81,250,273,0
202,154,88,113,65,34,127,90,99,117,156,80,250,274,0
219,161,101,117,67,39,117,79,77,111,162,101,267,297,0
226,168,104,114,66,42,122,72,69,99,177,112,280,291,0
223,172,108,116,73,42,130,83,105,110,196,116,286,296,0
243,186,115,133,69,40,129,93,118,145,212,120,301,333,0
256,208,121,148,56,37,125,93,101,154,209,120,314,335,0
247,200,117,143,52,38,122,100,118,141,194,114,305,303,0
237,176,109,133,63,37,120,117,151,149,194,112,292,291,0
229,176,104,126,70,36,122,134,154,159,195,111,287,305,0
218,175,91,119,56,40,121,125,110,129,172,96,268,295,0
212,161,80,112,42,37,119,92,71,98,150,80,246,258,0
211,165,95,114,49,31,121,79,78,98,157,86,248,254,0
217,183,119,129,62,33,125,90,92,106,169,103,260,282,0
217,178,119,130,58,37,121,87,73,102,168,103,255,282,0
207,162,108,111,44,34,117,72,63,99,177,98,260,272,0
209,167,115,112,45,31,119,81,96,114,194,114,282,292,0
224,177,125,125,54,34,130,108,117,127,198,123,286,298,0
222,167,116,117,56,39,146,123,122,130,191,113,275,278,0
211,156,98,108,49,43,141,113,126,135,193,109,280,270,0
212,173,96,111,44,37,110,87,97,137,194,114,293,274,0
207,176,96,111,44,25,101,73,66,114,175,106,282,268,0
190,147,89,106,45,28,117,76,71,83,152,90,250,261,0
197,150,95,108,49,32,121,81,84,86,154,93,240,267,0
222,182,109,118,58,27,123,94,99,112,175,107,264,275,0
229,182,106,121,62,34,134,108,108,124,180,114,276,286,0
206,158,93,112,47,35,135,97,92,109,171,109,259,274,0
189,152,88,110,33,22,122,89,98,92,173,97,250,249,0
193,163,85,115,49,26,120,106,132,113,188,102,268,260,0
200,174,89,110,67,44,135,112,124,147,212,121,292,285,0
212,173,102,106,51,41,141,100,105,151,222,124,303,287,0
225,162,114,110,42,33,131,100,112,144,214,126,304,295,0
230,170,126,116,59,36,120,101,106,148,211,142,306,309,0
227,188,124,118,68,45,124,90,93,130,203,133,297,285,0
205,178,108,109,65,57,131,82,91,104,174,94,261,250,0
182,151,98,102,58,58,130,77,79,89,151,78,234,230,0
190,150,106,107,57,54,139,86,79,85,162,93,242,236,0
211,175,125,121,72,56,149,102,102,108,187,115,266,283,0
226,202,144,137,75,48,137,97,109,135,201,132,288,316,0
252,212,150,150,57,37,117,84,99,132,203,134,298,307,0
265,209,150,156,56,48,123,90,96,131,200,121,299,304,0
243,198,141,140,66,66,144,109,114,148,209,125,302,310,0
224,183,126,114,52,69,146,121,136,150,218,138,297,295,0
220,172,121,118,50,67,146,121,128,144,209,128,281,283,0
219,179,129,137,71,66,144,115,110,145,203,124,280,293,0
220,181,126,128,72,69,137,116,120,137,206,135,285,285,0
211,168,118,112,51,67,135,120,122,122,193,129,263,260,0
194,166,120,115,48,50,122,96,79,107,173,109,243,251,0
188,169,116,113,67,47,110,70,47,88,166,106,242,255,0
202,168,111,121,76,63,121,83,78,83,174,120,240,251,0
221,177,126,142,68,56,128,103,107,109,189,137,253,259,0
227,189,146,147,59,33,117,87,89,134,201,142,277,290,0
234,195,156,144,58,38,119,82,90,149,212,140,290,312,0
250,202,154,150,49,64,145,117,127,160,229,154,302,310,0
244,199,151,141,39,77,164,133,129,149,232,170,309,300,0
220,181,152,128,46,78,162,114,116,132,219,170,296,293,0
214,172,145,135,54,77,155,113,125,139,206,153,278,279,0
209,171,127,129,52,79,151,115,114,132,188,128,262,254,0
195,162,109,112,51,69,136,83,71,109,171,111,250,234,0
194,155,97,120,59,46,118,55,52,116,168,104,252,240,0
181,161,89,129,64,42,111,52,59,125,169,98,256,247,0
159,164,81,109,53,57,107,44,50,95,161,88,249,230,0
172,161,79,107,52,66,108,54,59,75,154,93,244,226,0
198,172,92,138,73,77,122,93,106,99,162,111,245,242,0
194,188,109,149,82,90,129,108,121,128,171,114,245,246,0
186,191,114,143,77,94,126,97,113,132,171,108,249,252,0
209,193,124,145,80,96,133,107,131,132,178,122,266,264,0
232,203,143,151,80,89,144,122,139,152,205,148,296,276,0
229,203,151,149,78,78,136,107,105,169,221,159,316,295,0
221,183,145,141,73,82,126,81,73,147,206,150,302,293,0
224,166,132,137,54,84,133,72,72,109,187,136,281,268,0
223,179,131,143,53,74,141,85,95,114,190,138,290,274,0
219,197,143,152,75,77,139,101,119,144,211,148,309,293,0
218,187,147,146,75,81,135,104,119,151,219,152,307,280,0
207,166,143,139,62,69,134,107,109,139,209,148,293,266,0
198,163,137,139,65,65,123,114,113,137,196,139,283,272,0
212,180,126,142,70,81,112,108,118,147,197,135,286,267,0
225,203,123,149,77,91,124,99,111,141,204,135,287,253,0
208,194,126,152,84,83,140,98,99,118,189,126,270,238,0
188,168,114,142,64,75,138,96,87,94,164,113,252,229,0
193,173,120,132,42,74,123,83,82,89,171,124,265,252,0
224,198,154,152,59,65,114,75,95,118,207,157,296,289,0
240,199,167,171,73,59,112,85,114,153,224,171,308,291,0
214,177,150,150,52,69,115,95,117,148,203,150,288,261,0
188,162,138,132,47,71,119,101,110,122,185,131,266,247,0
206,167,146,148,75,65,118,104,106,127,191,139,273,251,0
231,171,151,154,79,76,124,105,106,127,200,148,283,258,0
221,164,144,142,60,84,129,119,120,119,200,148,286,275,0
205,169,146,143,63,70,121,128,131,135,213,154,298,289,0
208,177,142,152,69,69,114,120,129,139,226,157,300,277,0
213,170,118,142,61,82,116,115,123,125,212,144,282,256,0
211,165,109,129,73,80,110,109,108,127,198,128,272,259,0
204,164,109,124,96,74,107,91,90,129,200,122,281,258,0
197,165,90,115,84,78,116,87,85,112,197,115,280,249,0
202,172,90,118,69,79,111,98,88,112,193,117,270,253,0
206,176,112,137,88,77,103,105,93,128,202,136,269,255,0
196,167,106,131,87,77,99,105,104,131,201,138,266,239,0
186,156,80,107,54,70,97,97,100,116,184,113,256,226,0
192,158,78,109,51,65,99,82,79,105,182,102,253,239,0
204,169,96,119,74,68,107,79,77,113,194,118,260,257,0
206,165,110,110,70,72,116,94,83,104,196,130,261,255,0
198,159,114,107,58,72,110,96,83,103,199,139,267,246,0
195,171,113,114,65,64,103,86,96,135,213,149,287,258,0
204,180,116,118,81,64,115,97,111,150,222,148,293,272,0
219,171,126,116,82,78,132,115,108,137,223,152,291,271,0
225,167,133,115,73,88,131,116,119,148,226,162,302,278,0
214,171,127,112,72,79,123,114,133,154,224,154,301,284,0
195,165,111,105,74,67,120,106,110,128,208,137,283,269,0
195,164,113,111,68,66,116,95,93,122,195,139,271,250,0
206,175,120,121,66,71,122,97,96,128,199,143,269,247,0
191,169,100,105,59,69,125,98,88,106,196,129,258,243,0
170,146,80,81,41,66,120,95,94,95,184,116,248,241,0
172,149,83,91,49,73,119,108,116,122,190,126,256,252,0
186,175,90,105,73,77,116,111,108,139,208,140,274,264,0
200,179,94,103,67,68,104,95,89,126,204,140,273,262,0
203,166,111,110,52,61,96,94,97,116,198,140,260,255,0
200,168,120,106,67,68,105,104,107,114,208,148,267,262,0
202,176,103,90,69,74,115,101,105,122,215,149,283,268,0
194,171,91,98,44,67,114,86,91,127,203,147,275,255,0
172,155,89,109,41,60,102,72,76,117,185,138,250,233,0
168,145,75,90,50,58,93,69,78,100,178,120,241,229,0
179,144,55,74,44,61,103,84,95,105,185,117,256,246,0
174,144,52,79,37,65,121,116,117,125,195,124,268,242,0
169,141,52,72,38,69,128,136,128,137,196,118,259,223,0
183,151,49,74,41,62,113,115,116,135,189,119,253,232,0
191,164,62,100,48,51,93,80,86,122,189,130,260,249,0
181,154,72,103,49,47,86,73,71,112,195,127,258,243,0
175,147,61,85,40,52,85,79,75,96,185,115,244,231,0
187,164,56,82,42,51,78,76,78,88,170,128,246,239,0
201,176,62,94,45,45,77,80,79,101,183,143,254,249,0
198,167,63,91,39,51,100,95,83,101,191,130,243,245,0
187,161,54,82,34,64,108,97,86,94,181,120,236,238,0
196,176,56,89,37,63,91,81,84,107,184,129,251,252,0
231,200,71,102,44,63,91,79,91,118,192,136,250,279,0
265,218,80,109,44,69,102,95,107,108,188,137,245,300,0
296,248,91,129,49,54,87,89,95,103,193,143,271,323,0
342,303,115,168,59,31,61,57,63,104,206,151,293,356,0
393,337,123,180,57,38,54,56,70,101,211,154,298,388,0
414,345,114,166,48,49,62,80,84,97,216,156,313,405,0
423,369,111,174,53,44,72,67,53,80,215,156,322,414,0
449,400,125,181,57,50,86,44,39,72,212,168,320,434,0
481,403,143,176,46,60,93,54,59,84,217,184,334,464,0
493,402,149,187,41,46,81,58,55,85,227,189,354,484,0
501,428,152,204,45,33,72,54,57,83,240,195,371,490,0
516,446,171,216,57,41,87,80,96,115,265,213,397,510,0
525,449,182,231,65,45,94,103,111,144,292,228,425,525,0
518,442,171,237,63,40,84,95,100,136,293,229,434,523,0
522,447,176,235,65,40,87,84,89,124,284,232,428,522,0
531,448,184,230,66,45,99,65,66,125,289,239,434,530,0
529,440,176,220,68,52,94,45,59,130,303,240,462,540,0
532,443,185,224,80,64,86,41,63,134,311,244,484,548,0
535,444,206,230,78,65,89,37,46,131,312,248,486,545,0
526,430,206,216,56,47,88,28,40,126,319,251,488,547,0
528,418,203,204,45,33,84,36,63,140,336,266,503,569,0
532,420,209,203,54,38,94,52,78,158,346,274,516,570,0
526,413,204,204,55,40,101,48,65,150,338,262,510,552,0
523,390,199,197,39,30,95,45,59,126,325,254,506,556,0
520,368,195,180,35,35,88,49,58,108,313,251,506,558,0
515,364,194,171,49,48,83,34,47,114,319,250,513,567,0
530,375,203,182,56,35,80,21,56,150,364,270,537,585,0
539,363,215,185,44,19,87,41,91,188,397,294,550,588,0
524,328,208,175,33,27,100,61,100,189,384,288,544,582,0
508,303,188,162,33,40,102,55,87,167,366,271,536,576,0
505,284,183,152,33,40,98,68,110,170,376,279,541,583,0
499,260,186,137,30,37,92,95,127,180,370,285,537,578,0
487,249,167,117,23,38,82,87,104,175,353,264,533,571,0
484,244,139,120,24,38,79,75,96,170,361,247,540,575,0
494,238,150,137,37,40,85,85,100,179,382,259,546,580,0
510,242,184,145,47,49,88,83,99,203,405,284,554,586,0
513,248,197,145,49,52,87,68,113,221,414,299,556,587,0
505,241,187,144,48,50,94,72,135,211,411,295,555,584,0
490,224,178,129,44,50,103,97,145,200,394,274,551,579,0
477,196,173,112,34,49,101,114,149,209,401,269,552,581,1
464,172,163,110,26,45,88,113,139,208,406,280,553,577,1
453,158,151,100,14,33,74,99,100,174,379,270,545,566,1
443,142,150,84,6,16,69,74,69,142,366,254,538,562,1
442,137,158,86,13,18,74,48,56,135,374,258,539,565,1
444,138,157,98,17,29,86,36,54,145,377,264,544,565,1
428,128,149,93,12,28,92,50,86,165,385,263,548,558,1
415,126,146,86,14,24,93,93,148,190,394,260,546,554,1
412,117,147,89,20,35,103,132,175,205,391,254,547,549,1
397,92,146,83,29,54,116,132,161,212,387,246,549,539,1
382,93,137,83,38,67,118,126,164,220,386,249,543,528,1
377,110,123,93,38,70,107,131,172,215,381,251,541,522,1
368,100,112,84,29,63,96,116,148,202,379,246,543,526,1
350,70,117,59,22,52,92,92,127,200,377,239,542,517,1
335,54,113,49,17,42,91,94,138,195,366,229,535,489,1
324,46,93,44,7,41,98,107,147,187,359,222,532,483,1
317,35,90,31,5,48,109,119,151,188,363,227,529,495,1
318,35,111,28,23,52,115,128,161,195,371,244,528,494,1
325,48,115,37,37,49,108,128,162,201,374,248,531,485,1
315,35,90,32,27,43,110,124,142,190,357,227,530,464,1
289,13,79,10,20,40,126,119,133,175,344,216,519,450,1
288,15,89,7,29,41,127,112,146,196,359,232,523,474,1
302,25,91,19,34,39,118,108,146,217,378,240,528,484,1
293,19,84,17,35,49,119,118,154,213,379,232,526,462,1
290,20,95,10,35,62,126,141,186,231,384,244,530,472,1
307,28,111,13,26,63,133,163,203,251,393,259,534,487,1
302,28,106,12,21,66,140,172,192,233,389,247,527,467,1
280,22,106,8,35,79,150,164,181,223,379,235,525,452,1
283,20,113,16,46,86,159,158,187,235,377,240,524,456,1
290,20,102,22,29,73,160,156,187,231,369,234,514,450,1
274,14,97,7,11,59,155,149,169,213,352,222,504,437,1
256,11,100,5,17,63,151,144,152,201,341,226,497,430,1
249,8,86,8,27,77,151,156,177,206,346,228,494,423,1
239,7,76,6,23,79,153,176,214,226,356,223,502,415,1
226,4,82,2,19,71,151,178,204,236,355,226,503,409,1
220,3,84,3,17,70,147,154,167,219,345,225,490,405,1
219,5,88,4,12,72,141,135,153,198,340,215,485,400,1
222,5,93,3,14,72,147,153,176,200,335,214,487,398,1
227,2,88,2,22,71,157,169,188,216,334,216,485,397,1
230,9,86,6,29,71,148,152,172,214,340,207,486,401,1
231,12,90,9,30,74,142,156,171,204,332,197,487,396,1
228,6,96,6,33,76,155,170,178,201,315,203,475,385,1
230,10,96,11,40,78,156,150,160,195,315,213,458,382,1
236,34,91,23,35,79,141,132,145,188,316,212,448,375,1
229,42,87,17,28,79,142,147,160,176,288,203,422,350,1
211,32,88,15,33,77,150,156,166,169,275,188,393,331,1
214,51,92,38,43,71,141,142,164,180,291,178,394,338,1
221,64,89,40,39,67,131,130,160,185,290,179,405,328,1
197,41,77,20,32,70,131,120,137,160,267,175,388,300,1
170,20,72,15,40,70,125,110,116,136,252,166,367,298,1
173,25,81,23,47,71,120,116,135,141,254,169,367,306,1
192,43,81,32,46,78,136,133,153,154,260,178,373,300,1
191,46,65,32,40,78,151,135,133,148,251,170,366,284,1
175,39,63,18,36,74,146,132,123,135,240,161,351,279,1
185,46,79,23,51,80,141,135,137,149,264,176,363,307,1
210,59,89,47,59,84,135,133,149,178,294,196,399,329,1
201,49,82,45,44,76,126,135,158,190,291,189,406,312,1
180,32,69,23,31,70,123,135,146,179,278,179,379,292,1
180,33,69,18,37,70,124,115,114,161,277,179,369,295,1
180,35,76,25,47,79,124,101,110,158,280,175,386,304,1
179,32,77,27,49,98,135,119,144,166,280,174,390,301,1
176,29,64,21,41,95,136,134,151,158,261,170,365,286,1
167,27,55,22,40,67,118,121,130,151,247,161,354,284,1
175,44,67,46,56,64,113,110,129,162,270,169,375,303,1
198,58,87,55,55,82,124,124,142,171,286,191,386,310,1
192,36,90,27,33,79,131,141,144,165,269,192,365,290,1
165,16,67,14,17,65,123,133,136,153,246,167,344,268,1
156,22,52,23,14,69,116,117,131,138,235,144,337,258,1
163,35,61,29,27,81,134,118,130,137,236,146,338,260,1
164,40,81,42,45,82,155,126,137,152,248,170,349,268,1
170,44,90,53,47,79,150,130,148,167,258,190,364,285,1
178,52,86,48,45,90,152,138,148,171,266,191,372,293,1
170,57,85,46,51,101,171,145,144,170,279,182,370,282,1
164,55,85,53,49,92,162,140,146,173,275,174,370,272,1
178,58,84,58,44,83,146,135,151,172,263,175,369,279,1
175,59,88,59,41,81,146,134,139,169,269,188,362,282,1
153,48,83,43,27,71,135,122,117,153,258,184,345,260,1
147,41,65,30,18,64,128,111,121,132,224,156,323,244,1
155,41,66,43,30,69,139,120,139,127,217,148,322,250,1
157,44,85,50,38,81,145,132,135,130,235,162,330,252,1
156,47,86,41,33,90,139,126,129,140,241,164,332,251,1
164,49,82,42,37,90,141,120,138,161,252,167,343,272,1
168,39,89,46,38,83,147,120,144,171,266,183,355,277,1
153,31,88,43,32,80,151,126,149,157,259,184,341,252,1
142,33,79,42,37,87,157,136,149,147,241,169,320,241,1
152,32,81,41,44,97,160,142,146,153,242,168,320,253,1
157,36,86,44,43,99,160,148,166,165,253,177,335,263,1
150,45,85,48,47,97,157,149,177,166,254,176,344,264,1
163,54,87,58,48,91,142,124,134,155,250,176,338,265,1
180,66,101,73,42,85,128,101,103,150,258,189,342,274,1
176,72,104,74,44,85,137,108,124,146,262,192,350,277,1
167,55,88,55,44,85,154,133,137,138,239,176,333,261,1
164,40,81,50,44,91,156,145,128,138,219,169,310,251,1
161,40,88,54,42,101,151,134,131,135,222,173,300,254,1
165,54,96,58,36,96,152,121,140,131,224,173,298,261,1
190,77,107,77,46,94,151,123,137,141,228,180,317,286,1
219,87,114,86,62,107,152,132,134,150,245,195,346,318,1
243,95,126,79,61,105,150,139,137,149,263,205,361,343,1
270,114,148,95,56,94,143,143,133,158,282,219,379,364,1
281,114,154,111,51,95,148,125,119,162,292,231,392,368,1
276,104,146,96,43,92,152,111,124,150,282,225,379,365,1
282,122,146,90,41,88,136,123,139,140,265,219,374,378,1
303,131,147,101,42,93,124,125,125,135,267,219,386,390,1
309,118,145,99,41,99,134,104,111,133,270,209,378,380,1
305,129,149,100,51,98,139,102,126,137,262,198,366,375,1
322,151,168,130,55,84,138,114,124,132,270,213,376,395,1
336,148,183,139,45,69,146,110,88,119,279,232,381,407,1
327,136,168,119,45,80,157,100,76,112,263,229,369,396,1
316,135,150,110,59,100,157,102,101,110,247,212,362,381,1
306,120,142,99,48,103,153,110,117,110,254,201,362,368,1
296,103,120,78,33,97,150,112,113,122,256,200,368,371,1
306,121,121,87,54,100,145,112,115,129,255,210,374,387,1
322,138,146,110,72,111,148,113,119,126,264,220,369,392,1
317,128,135,100,56,113,154,111,117,132,265,218,361,373,1
309,120,125,79,44,96,151,103,102,136,264,213,361,355,1
318,124,142,83,51,81,140,86,81,125,270,216,369,368,1
325,125,137,95,53,90,133,75,78,118,269,207,377,384,1
303,115,111,81,44,104,141,81,86,118,247,180,361,356,1
271,96,93,51,36,113,149,86,84,107,224,164,333,322,1
268,88,88,46,35,121,154,95,96,103,227,167,330,329,1
281,101,104,60,44,116,155,114,127,122,244,178,342,343,1
283,115,118,69,50,107,148,116,130,131,252,187,343,348,1
293,122,117,78,54,112,143,95,108,130,259,193,349,362,1
301,127,121,86,58,114,146,86,110,145,272,198,366,368,1
287,113,122,75,50,100,140,83,113,145,271,196,363,355,1
279,102,115,58,36,93,129,81,101,123,256,195,345,346,1
287,110,117,56,33,98,137,103,111,126,249,199,340,350,1
286,108,119,61,39,102,153,122,123,137,252,195,343,346,1
280,106,119,55,37,102,145,109,103,120,252,189,344,338,1
279,110,120,55,31,95,133,101,90,107,248,189,340,346,1
281,108,119,67,37,95,141,116,107,118,247,193,331,350,1
281,109,117,71,53,105,151,119,106,130,251,198,337,347,1
276,117,118,66,56,111,150,106,96,135,257,199,354,355,1
264,107,116,59,49,116,155,116,126,142,259,193,351,353,1
253,91,111,50,45,124,167,138,156,150,259,189,347,330,1
255,98,110,51,48,123,175,138,144,154,261,193,358,329,1
269,113,118,69,50,118,171,127,128,155,261,203,357,346,1
277,115,129,74,48,113,161,126,136,154,258,209,343,341,1
265,99,125,59,41,102,158,129,131,145,252,194,332,324,1
244,82,111,47,38,99,155,119,106,132,238,182,321,316,1
237,88,109,48,39,106,151,120,105,125,229,185,315,309,1
246,108,119,60,48,107,155,139,143,133,243,189,326,311,1
253,112,125,67,54,106,163,145,155,148,250,186,335,323,1
244,97,118,57,51,118,171,136,120,138,235,174,328,320,1
245,103,118,57,46,125,174,134,108,116,231,176,325,324,1
271,132,133,80,52,114,169,129,134,130,254,198,341,349,1
290,142,153,90,65,112,158,116,132,150,271,214,357,356,1
281,128,151,82,65,118,155,112,108,144,264,205,353,338,1
269,120,131,81,54,119,165,122,120,143,259,196,349,341,1
269,122,120,79,56,126,170,130,139,152,261,201,348,342,1
259,113,118,72,69,135,163,129,122,137,248,194,326,316,1
247,114,115,77,72,134,155,122,102,111,230,174,306,305,1
258,142,114,91,70,121,150,117,124,111,230,166,307,311,1
270,152,117,91,68,109,145,118,141,130,239,176,312,314,1
261,131,119,74,54,113,150,136,135,143,244,183,320,320,1
253,122,117,68,47,122,161,148,139,145,250,181,324,324,1
258,141,119,83,58,111,155,119,121,135,246,180,319,323,1
259,150,121,90,62,100,139,78,75,118,233,181,308,317,1
255,134,116,74,56,111,144,83,74,111,223,180,292,311,1
259,115,110,64,50,120,163,114,108,112,222,178,289,315,1
268,128,121,74,48,115,162,123,111,109,223,176,302,326,1
281,162,142,86,58,114,150,119,112,115,228,176,305,338,1
305,176,151,98,69,120,155,124,142,129,245,189,314,362,1
322,174,153,105,66,116,158,129,147,139,264,207,339,375,1
312,178,147,106,65,113,144,114,113,134,254,196,332,348,1
295,176,137,106,68,126,149,103,99,113,229,173,302,329,1
297,168,137,98,61,130,164,109,114,113,231,181,304,346,1
312,164,146,92,62,109,155,111,121,133,252,202,326,364,1
314,168,148,104,62,101,150,108,112,134,250,198,324,353,1
297,169,140,103,51,115,159,107,103,120,240,181,307,337,1
292,168,136,86,49,125,160,112,113,123,250,183,314,347,1
311,174,145,100,59,125,157,122,139,141,259,204,334,372,1
326,186,157,122,68,126,156,130,143,149,259,216,341,376,1
311,179,153,111,63,125,155,126,119,128,237,201,325,352,1
286,152,144,94,50,119,151,114,105,102,193,182,295,331,1
279,145,140,99,48,110,146,102,107,102,166,177,279,324,1
275,156,129,109,59,112,148,110,120,119,166,172,286,314,1
267,148,118,95,60,129,155,129,135,131,167,170,288,306,1
266,132,116,75,52,134,157,121,136,127,162,175,275,309,1
263,134,116,77,50,127,161,119,138,127,160,173,272,315,1
254,145,116,86,57,131,170,138,136,134,157,176,283,312,1
248,139,117,81,53,130,170,133,115,125,157,183,288,306,1
251,126,118,77,39,113,159,109,106,104,154,177,283,305,1
252,131,118,81,39,106,152,116,121,106,141,168,276,305,1
253,135,123,83,50,114,153,137,137,123,143,175,281,307,1
253,128,123,82,45,113,150,133,132,117,146,174,283,308,1
251,129,117,79,36,101,139,114,104,101,137,160,268,301,1
257,141,120,86,45,98,133,100,93,99,139,165,269,306,1
271,147,126,101,52,99,137,96,105,113,152,179,283,312,1
266,139,121,95,43,97,131,95,108,119,147,174,279,297,1
246,132,114,79,35,97,128,101,106,110,133,160,267,285,1
244,137,115,85,39,97,141,110,106,99,131,155,266,290,1
256,143,118,95,42,93,151,111,95,94,130,157,262,292,1
251,140,118,86,35,98,159,112,96,89,118,157,255,283,1
237,130,116,79,34,113,171,121,117,86,102,157,252,277,1
232,129,114,84,40,109,166,136,139,109,108,161,255,286,1
241,137,117,85,45,99,154,145,145,131,130,170,268,303,1
244,132,121,85,46,113,160,132,122,120,135,175,271,295,1
238,119,126,85,46,121,167,109,104,98,118,165,255,276,1
237,123,129,89,48,109,160,104,109,92,109,160,246,284,1
236,137,122,97,55,112,154,103,106,97,121,167,258,297,1
233,138,114,96,62,119,150,105,114,105,129,170,272,292,1
228,128,112,84,58,106,144,118,125,114,128,166,272,285,1
223,129,111,81,46,95,139,116,111,106,123,165,267,282,1
220,128,115,81,39,97,137,106,101,91,114,163,262,276,1
228,119,117,76,43,97,141,109,113,91,112,157,255,276,1
234,123,102,72,44,110,148,121,125,108,120,153,257,279,1
225,131,82,62,45,125,158,133,130,120,124,149,270,281,1
228,124,86,58,53,116,160,136,137,119,125,150,276,288,1
242,121,104,64,43,95,140,120,129,116,126,154,270,288,1
236,119,99,54,24,81,119,101,116,107,111,146,258,274,1
214,114,88,45,33,81,119,99,114,107,100,137,248,263,1
208,125,74,52,52,92,130,107,118,116,107,136,251,262,1
205,128,62,47,46,98,128,113,119,116,113,137,260,267,1
198,107,73,37,41,98,126,118,114,112,120,142,261,272,1
210,101,87,48,49,103,134,121,113,112,128,155,255,274,1
226,118,98,55,45,104,133,115,113,112,126,166,257,286,1
224,124,110,52,43,95,132,119,129,118,134,176,271,297,1
214,120,105,52,47,105,146,145,154,136,153,181,283,287,1
209,125,96,54,46,114,162,159,152,145,152,179,282,278,1
213,131,110,54,44,104,159,147,142,145,141,175,280,287,1
217,118,118,46,45,102,155,139,131,134,140,173,279,295,1
219,108,106,42,48,111,161,140,121,120,139,174,277,295,1
218,115,96,51,51,103,152,128,126,124,136,174,276,285,1
211,121,88,53,52,90,141,114,129,129,131,159,275,275,1
210,120,86,49,54,94,145,111,107,122,119,143,274,276,1
216,116,90,51,52,98,147,110,84,103,106,148,259,271,1
208,112,83,52,44,92,141,106,90,86,96,148,237,251,1
202,124,83,51,51,90,144,111,108,93,102,149,247,263,1
218,140,98,53,57,102,159,123,121,122,128,162,278,291,1
219,128,112,52,43,111,167,135,128,132,134,168,281,285,1
206,113,116,51,36,106,158,138,127,115,119,161,266,267,1
212,124,113,53,40,100,150,129,120,115,124,158,267,277,1
225,137,114,50,44,102,151,129,129,136,146,168,280,304,1
222,137,119,51,45,107,150,143,144,147,149,180,290,305,1
204,131,106,51,42,106,141,141,135,132,138,172,281,278,1
192,121,92,40,41,102,139,125,126,120,131,155,260,263,1
184,108,85,31,45,94,144,116,124,123,124,152,247,253,1
171,104,68,26,38,82,139,107,97,110,118,148,247,244,1
169,101,60,19,24,73,124,100,76,83,117,141,251,257,1
183,99,78,21,29,78,124,102,99,84,119,147,253,272,1
187,109,92,32,38,87,141,106,110,104,117,148,248,257,1
178,114,85,33,33,88,148,108,97,97,105,141,236,246,1
180,109,81,32,33,94,142,111,112,93,109,146,242,267,1
198,116,92,43,42,100,144,114,136,117,131,159,264,280,1
207,129,103,48,42,98,151,123,131,132,143,167,277,276,1
202,128,108,50,38,97,149,126,123,129,142,173,281,280,1
206,133,110,55,41,96,150,118,128,126,144,178,285,289,1
209,134,103,43,43,99,155,120,126,130,147,179,284,284,1
194,121,88,32,41,100,152,132,126,135,145,172,285,277,1
187,118,85,46,37,98,147,122,119,131,139,156,284,272,1
195,121,90,49,39,95,137,94,91,111,130,143,266,260,1
185,114,84,36,45,95,124,91,93,95,121,144,251,252,1
178,110,83,45,51,92,125,111,114,98,122,148,255,262,1
187,117,92,56,50,89,139,107,97,102,117,144,261,270,1
192,126,89,51,47,88,141,92,81,102,108,137,257,257,1
193,141,83,55,50,85,128,105,104,102,110,126,254,243,1
187,140,90,60,53,94,122,121,121,112,124,120,262,250,1
186,133,95,53,53,102,131,117,121,130,134,140,281,270,1
196,143,93,57,44,83,138,105,112,123,141,167,287,272,1
194,142,101,65,33,67,132,92,87,95,139,165,270,254,1
185,133,113,63,37,79,125,81,87,92,123,149,263,253,1
191,139,112,60,51,94,130,86,104,103,123,149,269,267,1
197,141,99,57,51,92,135,84,88,98,131,150,269,266,1
191,131,93,56,49,91,134,79,85,94,120,154,269,260,1
200,138,107,69,64,100,144,93,112,111,122,168,280,274,1
213,153,121,81,72,105,148,106,115,125,142,168,287,281,1
203,151,119,74,66,102,134,100,96,114,131,150,277,260,1
182,134,109,55,58,99,131,99,94,94,108,145,259,245,1
175,116,107,50,44,95,141,109,115,96,114,160,248,249,1
190,129,114,68,45,93,146,107,138,124,133,171,257,260,1
209,167,127,92,70,109,148,104,141,139,144,168,280,270,1
200,167,125,90,77,127,153,111,132,133,144,157,289,267,1
177,135,109,66,55,118,152,100,108,123,135,151,272,252,1
178,133,107,66,52,102,147,77,80,111,137,161,270,255,1
192,149,119,85,59,97,142,75,80,104,150,164,285,264,1
181,141,111,80,45,90,139,84,90,96,138,150,275,241,1
163,128,94,67,40,86,137,85,87,77,106,131,245,223,1
167,134,102,71,52,95,144,97,94,69,100,123,236,228,1
172,139,111,71,57,104,155,113,109,82,115,130,244,228,1
168,144,90,67,53,99,154,104,112,101,127,132,257,227,1
173,157,87,80,60,91,142,93,113,115,132,135,270,238,1
189,164,112,89,65,87,134,97,113,119,133,140,271,240,1
198,168,119,86,62,87,138,100,105,111,131,146,275,241,1
198,168,117,84,64,96,137,95,95,106,146,159,287,265,1
194,157,118,79,65,100,122,93,99,103,160,168,289,270,1
179,148,98,75,61,98,121,102,115,97,140,148,277,239,1
168,150,82,79,57,111,146,114,115,96,114,118,255,220,1
166,151,97,80,56,117,157,114,113,101,118,120,241,228,1
166,149,115,80,60,102,147,118,143,118,137,139,256,239,1
172,159,113,84,71,99,145,132,156,136,148,155,276,242,1
182,162,115,81,74,112,148,123,114,129,149,162,277,244,1
178,154,115,80,67,114,143,104,93,110,143,156,268,242,1
162,152,101,88,75,117,143,118,127,108,130,138,258,225,1
145,151,78,82,72,128,152,129,134,99,109,111,239,192,1
138,143,63,59,53,116,144,100,94,79,99,99,227,181,1
150,139,70,51,48,97,135,88,92,94,121,118,240,212,1
178,155,98,64,59,100,148,115,130,121,156,154,272,250,1
197,171,122,81,65,108,153,129,140,128,168,167,290,257,1
191,168,114,78,61,101,144,120,130,123,161,158,283,248,1
176,154,94,65,57,95,141,110,123,119,152,143,278,239,1
167,145,83,53,54,102,149,111,122,111,141,127,267,223,1
163,140,71,40,53,112,153,119,127,108,136,119,255,218,1
158,137,56,38,54,113,145,118,116,111,142,125,267,230,1
155,144,56,45,55,102,141,107,95,107,143,132,276,228,1
157,145,72,41,51,95,138,98,94,100,136,132,265,219,1
168,145,85,38,49,95,128,98,116,101,146,134,267,232,1
177,162,87,55,61,95,127,119,149,126,167,139,286,250,1
172,174,80,54,69,104,142,138,158,147,172,138,288,235,1
164,163,82,39,62,112,157,129,126,131,163,132,280,213,1
154,152,82,39,52,103,152,105,87,100,148,124,269,204,1
125,133,61,28,37,90,147,99,78,82,130,116,245,191,1
110,114,42,13,37,90,146,95,88,83,122,112,234,191,1
137,132,60,28,57,99,146,90,100,98,134,124,251,215,1
159,159,90,55,71,107,156,105,116,114,149,139,264,220,1
156,158,94,56,67,107,163,119,127,116,153,128,263,208,1
156,157,87,51,65,108,157,111,125,114,144,114,272,218,1
161,165,84,53,65,113,157,117,124,123,143,132,283,233,1
160,167,82,54,64,112,166,130,130,134,160,145,284,232,1
155,164,78,54,65,109,157,121,126,135,160,125,278,215,1
148,158,80,52,66,108,148,110,109,119,149,113,273,205,1
151,158,85,54,69,101,152,108,109,112,160,127,278,220,1
159,168,87,64,70,96,151,99,116,119,165,139,278,234,1
145,156,85,60,60,101,147,97,107,115,141,132,264,216,1
135,140,81,48,48,101,156,110,103,102,134,124,258,203,1
153,163,84,50,49,95,157,111,116,105,153,133,269,220,1
162,182,85,54,56,91,146,108,127,121,161,134,271,216,1
147,165,73,48,55,94,147,117,120,120,152,114,259,196,1
146,157,67,50,54,101,156,126,123,119,154,117,262,206,1
149,166,64,54,53,109,161,125,137,129,161,133,274,214,1
133,166,56,41,56,109,159,115,133,126,157,126,273,198,1
139,172,63,42,69,105,156,110,124,119,159,121,272,203,1
169,191,87,72,80,106,161,117,131,129,173,134,284,226,1
181,194,93,87,78,103,166,124,130,141,179,144,290,225,1
158,176,88,67,69,100,159,123,126,130,170,134,274,207,1
135,157,80,39,61,103,159,126,139,124,172,118,268,203,1
136,155,67,34,61,109,173,133,152,134,174,117,278,209,1
145,169,64,42,70,118,182,122,139,139,168,120,278,207,1
152,189,76,56,78,124,175,106,121,136,175,120,273,210,1
162,200,93,73,72,118,159,105,118,128,181,134,278,226,1
167,189,103,72,66,112,157,111,112,119,174,148,282,235,1
160,181,95,59,70,120,171,119,118,128,186,150,287,232,1
163,195,94,66,81,120,173,124,132,149,204,156,293,235,1
181,214,107,89,90,119,158,122,139,148,201,156,291,239,1
171,208,111,89,88,125,160,127,150,140,199,146,287,230,1
148,189,106,76,80,127,179,142,154,144,200,150,276,222,1
152,189,113,78,80,129,182,143,140,153,199,164,279,232,1
178,205,122,84,84,126,171,136,138,162,214,166,301,247,1
178,212,122,80,79,120,167,142,155,160,218,165,302,243,1
167,202,118,75,81,120,173,138,150,151,196,163,280,232,1
172,196,117,83,89,129,176,120,136,144,195,161,277,233,1
172,200,119,88,87,133,173,117,142,145,215,160,286,235,1
170,201,118,84,77,122,175,123,132,142,212,161,284,236,1
172,194,116,81,72,103,168,114,108,131,198,162,281,244,1
167,190,118,78,71,93,149,93,95,121,197,157,276,238,1
149,187,114,64,66,99,147,86,91,113,192,146,263,218,1
139,181,98,56,66,113,156,101,106,108,181,137,252,212,1
138,185,86,65,71,115,153,125,132,112,182,138,255,213,1
135,187,88,66,72,106,149,131,133,128,187,139,262,205,1
132,184,86,58,71,104,152,116,115,131,185,132,259,214,1
140,196,89,68,78,112,159,109,108,121,195,135,272,232,1
158,213,107,84,80,117,169,122,113,130,205,149,290,229,1
164,211,121,86,72,114,170,130,116,135,202,157,280,223,1
157,205,114,86,70,104,152,113,107,122,201,146,265,222,1
151,206,101,86,69,91,133,92,106,121,194,129,267,213,1
152,207,102,80,65,85,129,90,111,128,185,131,263,210,1
158,207,114,82,72,93,142,102,113,121,190,146,256,224,1
165,207,129,86,78,109,160,120,127,120,204,160,263,233,1
158,199,128,86,69,120,170,131,135,128,202,164,265,223,1
146,184,118,85,60,121,173,123,111,116,190,153,255,213,1
140,176,114,73,55,124,178,110,85,97,183,140,241,212,1
133,179,108,66,54,128,175,109,95,101,186,142,239,209,1
127,182,101,75,65,128,165,112,104,113,194,149,259,206,1
138,195,107,82,78,121,164,108,104,113,196,143,273,219,1
161,219,119,88,84,109,163,112,135,137,205,143,277,238,1
171,228,117,108,95,108,164,134,162,165,219,153,285,237,1
162,217,114,113,98,121,179,141,137,152,226,151,289,229,1
157,212,118,96,83,124,178,113,102,126,218,150,277,230,1
161,211,116,93,75,116,161,90,105,123,206,158,271,236,1
165,211,116,107,87,122,159,92,105,125,206,157,284,243,1
164,215,118,112,85,132,172,95,92,114,206,144,280,233,1
158,207,113,102,72,117,174,102,102,101,197,138,253,218,1
162,208,121,100,82,101,164,112,122,109,200,148,252,231,1
175,228,135,112,89,106,161,112,117,123,214,162,278,254,1
178,228,134,118,77,110,162,106,109,119,218,172,283,254,1
180,216,137,114,74,106,157,105,116,125,216,170,277,250,1
183,221,145,113,84,108,154,106,117,140,223,169,284,252,1
173,220,135,114,79,113,156,98,98,126,222,169,284,242,1
160,205,112,109,77,117,156,87,82,104,206,151,271,226,1
161,205,98,105,87,124,155,91,94,109,193,134,262,217,1
169,215,101,103,82,120,160,108,119,121,200,131,261,219,1
171,215,108,95,74,106,163,111,120,126,214,140,268,230,1
166,211,108,89,75,107,169,108,111,128,218,157,278,240,1
168,214,111,91,79,121,184,113,120,131,217,166,277,242,1
176,221,106,93,80,123,179,102,121,135,214,151,277,233,1
167,216,84,87,84,105,141,74,93,127,199,122,272,219,1
154,209,72,80,87,97,124,69,89,113,189,112,259,215,1
163,213,85,81,82,100,140,95,122,112,204,130,260,228,1
172,212,89,82,75,95,140,105,125,119,216,142,273,236,1
162,204,82,78,72,93,132,82,92,112,200,126,268,225,1
163,208,84,81,74,100,147,71,97,109,196,115,260,220,1
175,213,87,86,74,100,155,83,125,126,212,128,269,226,1
171,206,86,82,81,95,149,86,109,124,219,142,276,237,1
171,209,94,82,85,101,157,87,94,110,224,149,282,250,1
184,211,102,79,77,106,166,109,135,126,234,156,287,254,1
169,186,90,57,68,100,157,115,154,147,227,146,271,232,1
152,179,80,56,73,97,150,94,117,131,199,123,248,216,1
179,215,88,81,83,99,150,90,100,110,188,120,251,239,1
205,231,91,83,73,104,152,94,113,112,199,135,265,262,1
212,216,96,68,62,112,162,96,116,123,209,143,278,275,1
242,233,111,78,76,116,170,105,127,132,226,152,304,297,1
264,262,120,94,88,119,168,117,146,132,235,162,314,314,1
254,253,118,91,84,127,165,113,133,121,223,157,298,311,1
251,244,117,87,83,123,161,98,111,111,220,159,294,307,1
259,252,119,92,80,106,156,90,113,120,231,169,301,306,1
247,246,117,89,67,101,154,87,119,134,233,155,302,297,1
229,232,110,78,65,103,155,93,113,132,226,141,306,295,1
229,238,107,80,73,100,153,106,116,123,227,145,305,296,1
239,248,114,91,72,110,152,113,122,124,219,151,290,295,1
243,243,120,90,71,128,165,109,119,121,209,154,282,294,1
240,237,115,81,75,126,171,98,114,107,213,160,285,299,1
232,230,106,73,72,115,160,101,123,114,223,158,286,296,1
228,224,108,73,74,123,154,119,154,144,226,151,290,294,1
243,241,119,88,84,127,156,124,167,159,232,162,299,311,1
254,254,120,95,82,114,157,110,140,153,240,169,307,322,1
247,249,115,85,72,108,152,96,117,144,237,162,309,312,1
246,246,123,87,73,116,152,88,115,134,226,155,302,303,1
252,244,127,90,75,127,164,90,119,120,217,147,292,300,1
247,239,127,91,80,130,177,103,116,116,213,144,284,295,1
247,254,130,99,90,127,171,111,117,121,215,155,282,297,1
256,261,127,98,87,125,155,112,118,118,220,161,282,302,1
251,248,117,89,76,125,156,114,119,109,221,152,282,298,1
244,249,116,93,73,122,164,114,125,115,215,153,284,296,1
252,258,120,105,70,121,157,104,132,132,219,163,293,302,1
257,261,115,104,75,122,145,101,128,139,235,165,308,315,1
257,265,116,103,81,124,158,111,130,151,248,172,317,321,1
256,262,124,100,71,130,180,118,142,164,242,170,313,306,1
246,254,120,94,65,131,179,114,132,151,228,158,299,292,1
246,258,121,101,68,130,171,115,122,130,225,161,295,300,1
257,267,132,113,74,133,179,117,139,139,233,169,305,310,1
253,273,131,117,104,145,184,124,157,157,245,166,315,308,1
249,281,128,118,138,159,187,142,170,163,251,171,320,316,1
268,286,145,123,121,155,198,152,179,175,257,189,328,336,1
272,277,155,123,85,137,199,135,151,173,258,194,325,335,1
254,261,139,110,76,125,187,109,112,147,242,184,302,307,1
250,260,140,110,79,124,176,104,123,139,234,172,300,298,1
260,270,143,114,87,132,172,111,138,153,245,168,314,311,1
255,265,120,107,99,145,176,114,127,149,248,171,315,313,1
251,262,120,106,97,146,171,117,142,153,248,177,319,315,1
265,275,147,120,83,128,151,126,175,183,263,185,336,328,1
268,269,150,117,76,119,148,138,169,179,260,183,333,323,1
259,251,137,100,76,124,162,136,138,150,236,171,310,310,1
256,256,141,102,81,127,170,131,141,146,232,165,303,310,1
250,263,146,114,81,127,176,133,156,151,241,171,308,303,1
242,249,137,113,78,128,173,118,136,142,230,166,299,287,1
238,242,132,101,71,122,161,91,99,123,210,150,278,282,1
236,246,136,98,60,109,160,83,93,108,209,155,270,295,1
243,247,146,111,62,105,161,86,106,109,221,176,286,307,1
246,247,153,116,71,102,151,91,108,127,221,178,290,293,1
233,239,142,102,72,98,145,108,117,131,214,164,274,271,1
228,231,117,89,71,106,155,125,139,126,220,159,272,278,1
237,241,116,98,86,123,164,131,150,145,236,169,291,300,1
236,259,135,109,88,129,161,126,134,163,242,175,306,297,1
234,260,131,110,78,116,152,109,109,149,240,169,305,290,1
246,255,118,111,86,108,148,95,109,133,242,168,302,300,1
253,259,124,114,88,107,153,98,132,145,247,176,309,307,1
252,258,130,112,82,106,152,114,154,165,245,177,312,303,1
250,252,124,109,82,106,152,129,160,167,248,171,306,295,1
242,252,117,114,82,115,164,122,143,160,248,166,297,285,1
223,243,118,106,66,116,169,102,106,139,230,157,286,270,1
212,230,112,92,63,109,162,109,107,120,213,150,277,264,1
214,232,95,92,78,117,161,133,140,130,216,150,280,268,1
211,237,93,99,78,119,159,123,130,135,218,145,274,266,1
210,237,113,105,76,104,154,96,111,124,211,145,265,269,1
223,243,119,111,89,101,163,102,131,132,222,158,277,280,1
234,251,120,117,101,113,175,120,141,154,235,165,296,291,1
230,258,134,121,104,124,171,116,136,156,232,163,303,297,1
231,262,132,119,108,128,164,112,150,156,229,162,303,295,1
236,259,115,114,107,130,169,118,156,156,230,166,292,284,1
231,253,113,112,102,130,172,124,156,145,221,170,280,281,1
226,245,118,114,96,129,166,140,171,148,218,167,281,280,1
225,241,116,115,85,134,161,146,164,148,222,155,280,270,1
220,247,117,114,90,134,168,131,149,146,227,147,286,281,1
223,255,120,112,105,128,179,124,149,164,247,162,311,299,1
239,254,121,109,103,130,175,117,135,168,258,171,321,291,1
242,255,122,121,99,131,162,105,128,149,237,157,300,282,1
239,264,123,138,103,127,155,113,155,146,230,151,291,291,1
246,262,122,135,98,129,158,133,163,160,240,158,302,295,1
249,246,122,115,92,132,165,125,143,149,232,157,302,293,1
257,253,139,119,100,120,159,103,132,136,234,164,301,306,1
274,276,153,144,98,114,146,96,125,144,246,178,310,309,1
265,266,135,141,92,123,152,104,121,147,231,161,304,290,1
229,238,111,120,98,130,168,112,130,134,212,132,281,272,1
218,241,110,125,97,126,165,115,146,133,212,130,274,268,1
241,267,120,146,96,117,153,115,157,162,222,146,290,281,1
251,275,133,150,103,122,160,119,146,168,231,164,296,293,1
249,266,149,144,105,125,166,116,126,137,232,173,287,295,1
257,267,155,146,100,106,153,103,126,128,235,175,296,301,1
249,261,142,140,91,100,152,100,128,138,237,169,304,291,1
228,238,122,119,83,116,170,110,130,131,219,156,280,261,1
214,219,113,104,73,119,165,116,144,116,195,146,253,244,1
206,221,113,109,70,115,155,110,137,118,193,140,252,249,1
213,234,124,119,83,120,169,99,120,128,217,153,274,274,1
238,237,141,121,91,110,171,99,133,141,235,180,300,297,1
242,235,141,120,83,92,157,111,139,148,235,179,302,287,1
223,239,121,119,89,98,159,112,118,139,229,156,288,264,1
220,242,99,113,104,112,171,93,104,128,222,142,284,260,1
222,234,83,103,97,114,165,88,113,116,215,129,280,253,1
209,231,77,100,91,117,158,97,131,115,204,111,270,239,1
203,234,80,100,94,125,168,103,150,135,202,114,269,244,1
213,232,85,96,84,124,178,114,155,154,217,133,278,257,1
226,234,101,103,75,112,171,119,145,155,233,147,287,272,1
240,241,120,115,75,95,153,110,149,153,241,158,293,290,1
249,246,120,115,83,95,152,102,146,156,249,167,301,295,1
250,256,116,114,95,109,163,96,123,157,255,171,310,292,1
253,265,117,120,102,123,172,93,117,160,248,174,310,290,1
246,257,119,113,96,127,179,104,132,156,241,168,302,283,1
231,240,116,101,93,125,180,107,136,148,239,157,296,275,1
233,238,112,107,94,123,175,91,120,145,239,153,294,273,1
233,242,111,112,87,121,174,91,113,132,231,148,288,268,1
225,242,115,105,90,119,174,110,137,133,229,150,289,266,1
225,242,114,105,97,121,176,123,163,162,246,157,300,271,1
224,235,111,110,90,129,184,126,147,162,244,152,292,272,1
224,236,112,108,91,134,179,112,122,143,236,143,290,276,1
241,260,119,113,113,129,163,97,140,168,252,155,319,293,1
250,270,123,120,123,126,163,107,162,194,268,170,334,297,1
237,247,118,114,105,130,178,123,151,171,254,159,310,276,1
230,240,117,109,96,128,181,119,135,147,234,144,288,271,1
234,243,123,119,100,119,173,108,126,146,231,153,290,280,1
225,226,122,112,88,114,173,104,124,150,229,157,286,265,1
212,214,113,91,73,115,180,103,121,144,224,142,277,251,1
215,224,117,100,82,120,183,98,110,129,222,140,276,260,1
222,230,121,109,97,128,186,97,106,123,223,148,278,262,1
219,222,110,92,96,128,184,106,123,129,221,143,278,255,1
222,227,108,93,97,117,178,114,143,141,224,146,285,263,1
235,249,117,119,109,120,177,113,147,160,243,162,303,282,1
239,257,118,124,112,133,186,108,134,165,249,168,313,287,1
234,244,114,112,101,132,194,102,126,156,236,164,307,277,1
230,237,117,112,101,128,186,99,137,160,229,163,302,275,1
237,246,129,117,112,135,185,110,154,174,243,166,307,282,1
246,248,133,117,114,140,200,125,161,174,256,175,315,288,1
246,250,130,115,114,146,206,129,159,176,259,179,321,290,1
237,257,127,116,119,152,204,121,147,174,253,175,318,285,1
225,244,121,112,112,144,199,107,130,146,238,168,297,271,1
223,230,117,107,92,130,187,100,120,131,232,158,290,270,1
229,235,124,113,86,126,183,103,125,145,232,157,302,281,1
226,229,123,112,88,123,185,97,116,140,224,152,289,267,1
217,215,109,106,85,114,169,91,116,125,215,145,268,260,1
227,230,124,113,89,114,156,100,147,151,226,159,283,283,1
243,247,149,120,92,122,170,113,152,168,234,168,295,287,1
239,235,144,110,81,125,182,119,131,138,224,153,276,265,1
220,214,122,96,67,122,174,113,130,124,211,147,260,255,1
213,212,116,89,70,119,172,101,134,138,210,153,263,267,1
228,225,126,88,80,123,181,95,124,143,223,151,280,273,1
223,220,124,90,73,127,187,96,122,138,216,145,275,254,1
198,203,112,84,65,123,185,104,141,144,199,138,257,243,1
204,213,114,86,74,123,182,107,159,158,215,143,271,263,1
229,241,127,105,88,125,187,103,150,163,242,166,296,284,1
231,250,125,118,86,116,185,94,129,148,230,164,292,277,1
226,244,117,115,73,101,168,97,134,140,213,144,279,266,1
234,244,122,114,76,97,163,96,137,157,227,150,291,273,1
231,243,125,115,84,103,170,73,103,156,239,166,308,278,1
229,240,133,114,80,111,172,66,79,127,228,167,302,277,1
242,246,144,117,78,119,175,81,93,118,210,159,284,277,1
242,247,131,114,81,118,180,85,118,130,203,153,278,273,1
229,239,113,109,78,115,181,78,116,125,205,155,280,268,1
237,245,130,112,78,108,170,82,115,124,219,167,290,287,1
258,255,155,116,84,94,155,88,125,145,234,174,308,306,1
247,246,141,116,83,90,147,79,115,150,229,162,315,293,1
225,236,122,117,83,96,151,70,105,144,220,155,301,283,1
230,239,129,116,81,100,156,78,120,151,223,160,291,289,1
234,236,132,113,73,106,153,85,109,145,226,156,292,280,1
220,226,117,111,70,110,153,69,78,121,210,143,286,261,1
214,222,114,109,77,107,154,60,96,121,195,143,276,258,1
228,230,133,114,77,100,156,77,125,137,201,157,282,274,1
237,238,146,121,70,94,156,81,112,129,217,161,293,284,1
235,237,144,119,70,89,150,76,105,122,222,163,292,283,1
235,233,142,113,76,92,147,88,118,134,220,169,295,283,1
235,231,140,113,77,95,153,88,113,139,227,171,303,289,1
239,234,131,116,80,99,156,72,107,132,228,166,297,288,1
237,240,121,116,87,112,157,74,110,125,215,156,283,275,1
231,238,121,118,85,113,154,81,100,114,199,147,280,270,1
230,233,122,118,78,99,152,77,106,110,196,145,281,269,1
227,224,120,111,71,104,159,87,124,120,201,146,275,263,1
225,220,119,110,67,115,164,93,120,130,201,151,269,267,1
226,219,118,111,65,103,158,78,103,127,199,156,270,272,1
222,213,116,101,70,96,155,85,121,121,199,151,272,265,1
216,213,116,100,79,114,165,111,144,137,209,153,281,265,1
223,223,118,105,78,119,162,99,129,148,221,163,295,281,1
230,226,118,98,73,102,146,66,100,134,218,158,291,279,1
220,211,110,89,64,93,150,66,92,122,201,146,273,263,1
216,202,110,88,56,98,163,81,99,120,190,150,272,264,1
217,199,118,81,55,101,154,84,110,117,194,157,272,271,1
215,200,118,81,60,96,147,82,117,118,199,149,262,269,1
215,207,112,94,60,100,154,73,105,120,192,140,261,262,1
215,206,114,99,61,110,155,68,98,120,191,141,272,263,1
220,209,119,97,65,107,152,77,103,124,202,148,280,273,1
231,223,119,102,71,96,149,82,105,127,202,152,281,287,1
238,229,119,113,80,101,147,78,108,130,195,149,282,288,1
233,218,116,114,84,118,156,77,104,132,195,145,281,275,1
231,221,116,110,80,122,165,88,115,136,193,142,283,272,1
234,227,119,109,77,114,166,106,149,145,203,146,289,284,1
229,217,121,108,75,111,168,116,151,152,213,157,289,283,1
220,214,119,105,72,113,172,113,124,147,203,153,283,270,1
219,218,116,109,71,114,175,110,128,141,203,146,280,275,1
225,216,128,115,75,116,178,109,148,150,218,159,288,287,1
226,212,138,113,74,115,178,111,145,158,218,171,294,282,1
212,204,125,106,65,105,172,116,145,153,207,162,291,273,1
198,198,113,106,65,107,164,114,145,146,203,153,280,273,1
207,209,119,110,75,120,165,111,142,155,213,153,280,276,1
216,214,123,113,83,121,177,116,151,168,217,153,295,273,1
206,203,118,105,77,113,177,116,146,161,205,156,292,265,1
209,202,118,95,70,111,158,104,131,142,202,162,286,270,1
221,210,127,99,73,109,155,98,135,139,210,162,289,276,1
220,208,135,107,66,98,165,100,137,145,202,158,280,259,1
221,205,138,107,57,98,169,104,133,142,188,147,272,257,1
233,214,144,110,69,118,177,112,150,146,199,146,287,290,1
238,223,153,118,88,129,187,114,160,164,217,164,304,310,1
234,217,147,120,88,120,179,102,141,169,220,172,304,291,1
228,213,130,117,84,112,167,81,118,150,205,158,296,273,1
223,217,121,119,94,119,164,70,113,137,190,140,283,277,1
226,216,118,116,99,120,164,79,123,142,187,132,281,281,1
227,206,110,101,82,111,161,93,139,145,193,132,291,275,1
218,198,104,97,69,110,162,100,148,144,195,131,284,265,1
215,197,111,111,76,123,172,105,139,145,185,133,261,261,1
234,212,120,112,82,129,178,103,115,135,175,139,248,272,1
262,239,132,114,81,126,178,93,107,124,187,147,265,293,1
279,264,145,136,81,117,176,85,111,123,196,151,278,303,1
282,275,148,148,79,103,167,76,103,122,183,152,267,301,1
288,284,147,148,90,102,158,70,97,119,180,148,264,310,1
300,298,152,149,102,112,164,75,105,115,190,145,269,318,1
304,305,154,153,92,113,175,81,113,113,183,150,260,321,1
318,309,157,165,88,112,171,78,109,119,178,155,263,335,1
337,321,166,177,103,122,166,76,101,118,193,156,275,347,1
330,323,168,172,101,129,177,87,110,114,196,160,268,336,1
312,304,160,169,88,129,186,105,129,129,186,168,264,328,1
313,299,168,176,100,132,185,109,132,139,197,178,277,337,1
310,309,177,175,114,131,179,97,131,135,207,183,280,332,1
291,304,161,172,103,124,171,84,130,130,197,173,268,314,1
275,284,144,173,90,121,165,83,115,124,189,159,261,300,1
262,271,150,162,92,124,171,86,108,127,191,153,255,287,1
257,278,152,158,95,124,178,79,117,133,182,150,247,278,1
262,279,146,168,106,124,178,67,113,120,180,159,245,279,1
249,247,149,160,107,124,180,75,112,104,189,168,235,270,1
225,221,143,137,83,115,181,94,131,111,178,155,220,240,1
231,236,140,148,75,108,172,92,141,121,159,145,222,232,1
246,271,148,174,90,115,164,81,122,114,161,146,216,256,1
250,294,149,174,93,123,166,80,112,117,166,142,199,282,1
277,306,156,173,81,118,170,80,121,131,172,152,213,303,1
298,310,173,179,75,111,175,85,125,133,188,171,234,311,1
277,300,175,170,75,114,184,101,128,123,192,174,226,300,1
253,277,157,149,71,120,179,104,125,120,173,165,210,269,1
236,251,132,140,65,113,160,87,113,104,150,143,189,224,1
213,241,114,144,73,102,145,69,101,88,142,116,170,200,1
186,237,110,146,84,100,146,53,92,89,143,110,167,194,1
168,227,114,145,75,104,151,43,83,87,137,118,165,192,1
168,225,117,143,74,104,154,58,98,90,144,126,172,203,1
179,233,119,146,92,111,166,90,138,118,165,137,192,216,1
184,230,122,144,94,125,178,108,149,138,167,144,199,216,1
176,215,119,137,80,127,176,100,125,126,156,137,188,207,1
158,216,118,139,78,117,173,95,119,116,158,126,185,189,1
130,217,114,138,76,120,174,100,131,119,151,116,182,168,1
112,183,109,118,68,134,181,103,135,122,137,119,167,170,1
120,160,109,103,71,137,188,106,143,124,141,138,163,182,1
142,189,114,118,72,130,181,95,128,111,142,139,165,164,1
149,220,112,136,74,122,157,67,87,89,125,118,150,149,1
142,226,99,135,75,119,152,50,84,76,111,103,126,161,1
150,226,90,137,62,114,167,61,97,66,103,98,110,168,1
150,217,88,133,48,105,160,68,75,43,87,88,95,147,1
126,208,87,121,54,106,143,60,69,41,80,84,89,135,1
120,211,87,127,65,112,153,64,101,74,99,98,103,154,1
136,210,89,141,66,107,167,75,115,94,124,109,130,169,1
132,210,99,141,70,105,165,71,107,92,130,112,140,162,1
126,220,113,139,73,118,175,78,125,100,129,119,140,159,1
140,216,122,143,73,134,198,106,146,114,140,130,147,154,1
137,203,118,135,69,138,201,107,136,108,142,133,148,140,1
120,202,112,120,58,133,192,92,126,102,128,134,136,133,1
121,197,117,116,52,131,191,103,126,106,128,126,136,146,1
123,181,117,114,59,128,189,107,113,102,127,112,136,152,1
106,170,102,108,66,113,176,82,87,79,102,104,113,130,1
91,165,84,106,70,111,171,72,84,57,84,99,95,105,1
96,172,80,112,78,125,170,80,99,67,98,102,109,114,1
104,192,95,125,78,125,159,71,102,88,112,106,128,139,1
105,197,107,137,68,116,154,62,101,82,106,108,125,139,0
111,182,111,140,66,118,164,66,100,65,108,114,121,124,0
116,184,111,138,75,121,173,65,91,72,125,122,128,134,0
113,201,101,141,79,123,173,58,89,98,133,122,137,151,0
110,203,98,141,73,134,179,70,115,107,128,120,140,150,0
117,186,100,139,67,137,192,86,123,95,127,116,139,142,0
127,182,101,141,73,129,187,80,106,89,129,121,139,151,0
123,196,106,142,83,127,183,75,109,96,132,131,144,157,0
108,194,105,142,83,131,186,78,110,102,135,124,153,153,0
106,175,89,141,82,128,174,81,107,103,138,114,156,153,0
114,171,83,134,90,126,158,86,121,101,140,116,150,144,0
104,176,90,135,94,134,162,77,111,95,131,109,138,135,0
98,174,88,143,83,131,163,62,87,86,117,95,129,135,0
105,168,85,134,76,125,154,70,92,77,117,101,128,123,0
98,172,87,119,84,132,158,85,105,81,121,117,131,131,0
104,185,98,131,90,133,165,75,98,86,126,118,145,168,0
132,199,115,149,86,125,161,64,101,87,139,113,160,172,0
132,201,121,145,79,124,156,69,107,95,144,111,155,157,0
115,195,112,140,77,122,150,64,102,98,133,115,142,163,0
119,185,95,143,76,121,151,52,90,84,121,106,133,153,0
117,175,83,137,73,130,158,53,90,80,115,92,130,135,0
104,177,85,134,75,133,158,69,118,102,125,99,143,154,0
109,183,90,143,80,124,156,71,121,106,136,108,149,156,0
108,178,85,138,80,120,164,56,90,79,127,102,139,135,0
96,169,81,125,79,123,161,56,95,75,129,100,146,151,0
102,168,79,129,87,125,156,77,127,106,150,115,170,175,0
112,176,80,140,102,129,166,86,119,118,161,119,173,161,0
545,1,0,1,283,329,288,292,0,344,0,1,1,591,0
105,171,82,137,82,125,158,53,83,83,133,94,153,142,0
106,167,82,139,78,118,153,36,70,79,125,93,149,144,0
123,180,92,146,83,115,156,33,75,89,133,110,159,159,0
141,201,105,149,83,119,158,47,99,96,145,122,178,186,0
141,203,110,147,80,123,159,55,96,85,143,120,183,192,0
145,200,109,154,86,119,162,56,91,84,137,116,170,182,0
159,204,114,169,87,121,165,58,99,102,136,115,163,169,0
150,197,121,168,84,124,165,52,89,95,137,112,165,154,0
133,186,107,151,93,113,155,49,88,70,138,111,164,159,0
129,185,91,140,92,108,148,56,100,72,137,114,163,166,0
125,193,99,151,78,114,148,51,85,88,140,114,169,167,0
130,202,111,166,82,114,148,47,90,98,154,121,184,187,0
141,210,114,155,93,113,152,64,123,104,160,129,192,194,0
144,200,114,139,87,119,167,79,123,112,159,126,191,179,0
140,185,102,149,78,126,174,74,108,111,151,119,191,170,0
133,179,83,148,70,122,166,66,108,95,139,107,175,156,0
130,175,79,134,69,112,157,65,105,88,145,105,160,157,0
141,179,85,140,84,109,155,64,96,98,156,114,172,191,0
149,179,76,135,83,107,148,51,70,85,142,110,181,187,0
129,162,58,110,65,97,139,30,44,51,121,93,150,140,0
109,159,52,106,68,96,142,22,59,50,120,86,133,142,0
122,170,53,106,78,103,146,35,83,70,122,81,152,163,0
138,170,52,99,72,103,138,37,66,75,122,77,153,145,0
143,169,50,102,77,109,135,39,59,71,130,87,143,144,0
149,175,59,109,91,114,148,60,89,72,137,96,153,174,0
157,181,73,104,76,105,153,65,98,78,140,103,171,192,0
154,177,76,88,51,99,147,50,86,94,148,110,176,188,0
146,152,68,71,55,109,156,71,117,111,161,111,171,172,0
137,136,68,71,67,118,178,103,146,117,159,107,165,154,0
115,162,62,85,69,116,173,88,117,108,146,93,165,154,0
94,188,36,85,76,118,156,55,91,98,141,78,176,154,0
82,167,22,75,83,115,151,45,89,93,134,80,171,133,0
85,147,29,74,76,101,144,39,70,86,130,79,155,128,0
88,157,26,78,74,97,139,32,53,74,129,65,152,134,0
82,154,22,71,73,107,144,32,62,67,122,66,150,125,0
87,145,35,64,63,101,150,38,83,75,127,84,153,131,0
106,159,54,74,69,95,152,54,93,102,150,99,173,152,0
119,171,57,84,80,113,158,64,95,110,152,94,185,160,0
117,161,57,83,78,124,165,64,100,87,140,89,174,164,0
116,161,64,85,74,121,168,74,118,93,152,106,179,170,0
114,167,66,88,72,119,167,79,126,129,162,110,190,157,0
107,154,59,82,69,111,160,62,95,120,139,88,166,131,0
99,141,56,78,72,106,149,47,57,70,109,70,133,120,0
91,141,57,80,76,106,143,55,70,60,108,72,131,122,0
93,144,42,80,72,105,149,66,97,86,128,74,150,118,0
92,147,23,77,73,112,155,61,90,87,128,65,154,116,0
87,148,35,82,73,115,151,52,74,68,113,61,138,127,0
90,146,55,82,61,104,142,51,86,69,116,64,131,139,0
104,154,54,74,66,100,142,58,109,88,137,75,154,144,0
129,175,53,79,78,109,148,63,113,105,156,98,184,155,0
136,177,58,89,65,108,142,55,90,106,156,107,187,163,0
119,163,53,84,55,111,136,56,87,96,145,93,179,164,0
117,164,54,81,65,125,146,75,105,96,150,93,186,168,0
126,161,57,78,69,125,154,77,98,109,164,101,191,166,0
111,142,51,59,63,112,142,54,90,114,163,87,186,161,0
103,140,48,54,67,102,130,50,102,102,153,85,186,162,0
110,152,48,73,69,103,140,62,95,95,147,90,180,145,0
107,163,47,83,65,104,147,63,81,101,144,83,167,135,0
111,162,56,81,67,104,147,64,89,102,148,94,172,161,0
115,143,66,75,73,109,152,62,86,90,148,103,172,174,0
114,154,60,77,78,106,149,40,61,78,130,80,156,153,0
112,183,36,78,65,100,137,23,49,68,109,52,137,128,0
101,182,19,67,53,103,137,31,62,58,108,52,128,130,0
115,188,44,80,69,99,148,50,90,78,129,74,149,161,0
150,214,78,113,88,96,151,60,101,105,147,96,179,180,0
144,209,68,105,82,103,142,56,92,93,139,85,169,153,0
110,185,43,73,66,101,132,48,75,70,115,57,135,124,0
112,178,44,78,69,100,131,37,68,85,114,60,139,145,0
123,183,53,88,80,113,136,40,87,112,143,82,165,163,0
115,192,52,85,81,119,138,55,90,103,148,89,161,142,0
113,186,52,86,69,115,135,49,65,72,118,76,133,127,0
113,166,50,80,54,108,137,42,62,57,99,60,118,125,0
104,165,48,73,59,102,147,61,81,69,106,66,121,125,0
107,178,50,79,72,111,153,71,80,81,123,81,137,148,0
130,190,55,90,76,125,152,66,85,87,137,92,157,175,0
142,197,59,97,77,124,152,74,106,101,144,99,165,167,0
138,203,67,103,82,125,164,83,115,110,150,105,167,163,0
145,209,78,111,87,134,176,92,124,119,167,110,179,188,0
149,214,84,115,91,131,169,98,131,133,183,119,193,197,0
145,217,86,114,91,127,155,93,124,135,176,125,195,188,0
153,215,84,110,83,128,147,81,112,119,161,113,189,188,0
157,215,83,112,78,127,140,58,86,104,163,102,183,184,0
151,220,85,116,80,125,135,27,51,95,156,106,176,169,0
155,212,87,113,83,121,142,22,41,72,136,108,165,164,0
155,197,88,109,82,112,144,38,51,54,131,107,158,178,0
140,200,74,111,79,108,139,43,62,69,137,105,155,180,0
135,203,57,109,75,119,144,52,75,89,133,97,153,167,0
142,193,70,106,69,125,152,69,94,97,137,94,163,173,0
152,204,92,112,72,122,158,75,116,117,160,112,189,199,0
166,224,93,118,80,123,163,77,119,133,174,128,209,208,0
173,221,89,117,86,127,162,83,111,128,170,125,205,189,0
159,212,86,109,89,124,159,81,104,120,166,112,195,172,0
154,219,80,108,94,122,155,61,97,123,170,103,202,189,0
182,234,84,127,97,125,145,51,98,129,186,114,221,219,0
194,236,93,139,91,123,143,70,112,135,194,130,226,218,0
162,217,86,117,81,122,148,81,110,127,183,120,214,193,0
138,199,69,95,80,128,148,72,96,108,158,100,194,180,0
141,195,58,89,83,130,138,63,92,93,135,91,169,172,0
142,201,58,94,80,123,129,48,83,78,128,88,159,165,0
137,207,59,104,80,123,130,34,68,75,127,84,168,163,0
130,205,50,104,78,124,133,46,67,82,121,79,165,154,0
125,202,45,100,71,113,124,66,81,89,118,80,154,153,0
147,216,67,114,77,113,121,72,99,105,132,97,168,171,0
170,232,90,124,90,128,127,77,109,121,152,112,189,190,0
159,224,88,115,86,131,127,81,107,124,161,110,194,202,0
147,211,79,112,78,113,126,77,106,118,163,105,201,209,0
156,207,81,116,79,104,127,72,103,114,165,112,211,209,0
169,213,86,116,82,112,127,60,86,108,171,119,212,214,0
172,222,92,119,87,116,129,49,75,109,170,121,216,217,0
167,222,95,119,86,115,130,45,69,109,169,123,215,207,0
163,210,87,113,79,119,137,38,65,97,166,114,201,205,0
162,204,81,110,81,123,137,38,66,96,158,97,194,201,0
159,208,83,112,86,123,133,50,64,99,155,88,192,191,0
159,211,90,110,86,124,139,54,63,89,146,87,181,182,0
167,215,92,123,84,126,143,56,75,79,131,87,177,173,0
161,214,87,134,80,124,141,78,99,90,136,89,180,180,0
158,205,82,122,79,112,140,84,104,103,153,95,184,203,0
170,213,82,124,91,103,132,54,89,106,158,106,202,216,0
173,230,86,141,102,111,125,42,78,109,163,119,214,218,0
173,229,88,137,99,119,130,50,77,104,158,118,202,217,0
177,218,84,121,96,109,131,37,64,87,142,105,190,208,0
174,216,84,122,88,100,118,10,42,81,146,101,197,205,0
177,218,86,133,76,102,117,7,47,88,163,110,210,217,0
196,217,86,134,80,113,136,29,73,94,169,129,213,229,0
200,213,91,122,94,125,150,51,87,104,165,138,209,231,0
183,209,90,109,89,122,143,54,72,113,165,124,204,226,0
175,206,66,113,74,115,130,54,80,110,165,112,199,217,0
164,195,51,108,67,119,133,73,114,99,150,105,193,194,0
156,188,55,87,70,115,132,72,97,91,136,97,190,181,0
175,205,58,84,79,100,115,41,63,100,153,102,205,210,0
192,222,67,104,86,103,118,36,77,117,175,115,223,236,0
186,213,78,117,89,118,141,55,94,117,170,114,223,225,0
175,198,78,109,84,118,141,52,80,113,164,113,218,221,0
176,202,76,105,76,113,125,42,81,116,169,115,220,228,0
189,209,84,112,75,105,126,54,99,118,165,109,221,225,0
200,212,87,115,82,105,136,65,95,117,163,106,221,222,0
192,215,85,110,85,120,145,72,100,121,180,116,236,235,0
192,213,90,110,88,126,148,79,116,132,192,126,246,246,0
201,208,90,111,91,121,143,70,95,135,177,123,236,242,0
197,209,84,109,88,125,143,52,61,122,169,121,226,238,0
202,219,97,112,86,131,148,62,86,118,184,134,235,246,0
218,220,116,118,83,127,142,93,128,140,196,147,247,252,0
220,214,114,116,79,121,129,91,108,143,191,145,243,244,0
210,216,105,116,77,110,122,68,84,127,188,136,235,239,0
198,211,98,113,71,100,120,69,93,123,185,130,226,238,0
198,198,88,106,68,106,127,85,102,128,181,125,219,238,0
207,203,85,111,75,111,136,76,90,130,182,127,228,244,0
201,208,99,116,75,111,144,59,70,120,182,133,230,240,0
196,201,110,111,73,116,152,68,64,111,182,134,224,242,0
214,212,119,116,90,120,153,77,78,124,189,140,240,266,0
233,231,125,128,102,117,141,66,87,140,198,150,261,277,0
223,222,116,120,95,119,137,53,73,127,192,149,249,262,0
203,207,113,110,96,109,136,58,66,114,178,140,233,251,0
197,209,116,115,98,80,128,69,79,122,173,130,235,245,0
202,212,100,117,88,66,131,78,102,130,180,120,240,239,0
208,206,91,109,84,59,146,91,124,148,194,124,247,248,0
203,200,107,105,85,46,152,98,120,155,201,134,256,255,0
195,202,113,109,74,39,141,85,96,135,189,137,249,246,0
201,211,111,111,71,41,136,72,90,132,182,144,238,244,0
207,209,114,113,83,49,147,82,110,146,194,142,239,251,0
199,196,107,110,80,47,152,89,104,139,188,116,233,242,0
196,188,103,105,79,34,146,80,80,124,169,109,221,231,0
219,197,119,114,94,32,146,78,93,132,177,139,226,247,0
227,209,125,121,95,39,150,83,119,148,195,154,236,256,0
209,205,114,114,83,32,143,91,112,144,190,140,224,242,0
193,187,112,112,78,25,132,98,102,132,175,127,216,232,0
190,178,109,106,75,28,131,104,109,137,180,121,227,238,0
193,179,98,85,72,29,138,110,106,143,189,122,227,239,0
182,168,89,78,72,33,143,105,103,138,175,120,208,228,0
177,164,90,83,74,31,144,94,114,144,167,109,208,226,0
190,186,91,89,73,30,139,90,105,160,184,108,233,237,0
194,198,86,100,75,32,133,89,91,156,190,114,237,236,0
186,190,86,109,80,25,135,89,103,145,177,118,227,234,0
182,193,99,108,83,21,149,96,96,134,170,119,223,234,0
186,191,105,96,78,23,161,108,85,125,171,115,218,225,0
192,183,101,93,75,13,152,111,106,137,177,116,225,225,0
193,183,104,102,82,3,141,93,101,148,188,125,242,246,0
189,181,106,98,81,11,144,66,68,143,187,126,235,248,0
191,182,103,85,75,12,145,59,73,133,179,123,225,232,0
196,191,101,88,81,6,138,72,89,127,172,127,232,231,0
193,192,99,102,88,19,139,83,83,124,173,125,227,231,0
191,190,96,102,80,30,152,94,103,136,181,123,225,229,0
190,192,91,100,68,21,157,105,120,147,183,134,239,237,0
190,190,91,101,81,18,151,100,98,145,181,133,240,242,0
195,197,108,111,102,28,143,92,88,149,187,128,238,242,0
204,213,124,123,99,26,138,91,101,152,198,136,249,252,0
210,213,116,118,84,27,131,87,104,148,202,140,258,262,0
203,205,107,112,88,34,122,82,96,146,191,133,255,247,0
189,198,98,111,97,19,127,74,90,140,170,114,234,215,0
181,192,85,111,85,5,139,57,71,114,153,92,208,208,0
175,186,82,109,74,16,144,54,61,99,152,88,209,227,0
171,186,82,106,76,15,147,79,81,119,166,105,231,237,0
178,192,83,108,74,6,145,91,93,138,181,123,242,239,0
192,200,93,114,80,10,129,78,86,140,193,133,238,247,0
198,202,102,117,89,9,120,75,81,139,201,137,243,249,0
200,205,101,116,90,7,128,77,79,142,205,142,257,245,0
206,206,103,113,92,16,131,61,69,134,200,149,254,243,0
196,193,98,102,91,13,124,47,62,116,177,132,230,229,0
179,180,85,100,82,7,125,47,55,98,157,109,212,214,0
173,176,77,109,74,21,133,55,52,99,159,111,210,213,0
169,174,67,98,79,24,140,65,67,110,165,114,211,210,0
166,171,60,92,82,18,141,82,82,105,162,107,215,203,0
173,171,75,103,73,21,141,103,97,111,169,111,224,213,0
187,170,88,95,66,22,136,106,103,135,184,120,231,222,0
195,176,78,89,72,20,128,86,90,141,187,118,234,224,0
202,190,83,108,87,25,134,81,86,136,188,124,244,237,0
206,193,97,121,87,35,146,97,95,136,192,136,251,240,0
194,179,89,108,75,30,140,88,84,127,188,133,233,222,0
187,175,78,100,72,19,126,67,72,119,181,129,223,225,0
202,196,92,107,82,21,124,81,100,135,191,143,245,256,0
221,209,113,120,87,23,125,107,122,147,209,154,263,268,0
219,197,111,120,77,15,122,103,101,139,203,146,253,250,0
206,187,100,110,71,17,125,86,71,126,186,133,234,232,0
202,197,107,113,73,35,138,88,68,113,185,131,225,235,0
211,201,116,118,76,41,146,100,83,112,181,137,223,240,0
214,197,115,118,76,32,133,96,85,116,171,142,228,237,0
200,200,110,118,71,20,117,79,80,118,172,136,232,238,0
191,203,106,121,76,18,122,74,79,119,178,128,236,245,0
201,207,111,125,80,17,119,68,78,116,187,137,244,250,0
207,206,116,124,69,9,110,56,80,111,192,144,241,251,0
195,189,111,112,61,22,120,66,88,117,182,138,230,237,0
187,177,109,109,70,39,129,93,95,132,174,134,231,221,0
193,190,114,116,74,17,118,92,82,127,175,136,234,233,0
198,202,110,118,73,2,108,71,67,111,172,136,225,251,0
197,197,108,121,77,21,113,68,67,114,172,134,228,242,0
193,189,104,119,75,32,121,68,72,117,169,130,237,233,0
197,185,98,116,75,18,119,61,69,113,170,126,238,248,0
205,184,106,121,80,9,117,63,75,115,183,134,241,253,0
202,183,115,123,76,9,117,76,94,128,192,142,246,242,0
208,188,113,124,77,15,117,85,102,130,197,148,256,257,0
234,204,126,138,88,19,121,95,103,126,209,161,271,282,0
247,216,156,155,81,11,126,100,90,136,206,175,271,286,0
233,197,156,144,60,2,128,89,64,131,186,169,245,267,0
219,170,129,112,59,3,126,64,50,106,177,151,230,254,0
219,168,108,104,68,8,116,42,51,97,169,140,228,249,0
205,178,93,116,58,8,112,40,54,93,143,118,211,225,0
180,174,79,107,43,14,117,52,64,80,126,93,193,206,0
177,166,81,96,58,11,107,53,79,91,146,99,206,223,0
197,178,97,112,76,8,102,53,83,124,176,124,237,241,0
198,188,104,117,65,14,116,70,89,135,173,130,240,243,0
200,190,110,119,59,12,118,83,88,122,163,123,234,254,0
214,193,112,136,75,9,110,76,76,111,180,128,247,256,0
198,185,94,127,76,26,122,79,75,111,187,139,251,244,0
178,175,81,107,65,33,134,81,84,118,168,133,235,243,0
189,178,88,115,70,26,126,56,68,110,155,115,225,239,0
196,182,92,121,63,29,121,37,47,93,153,107,224,235,0
189,175,85,109,48,25,122,42,54,93,155,116,220,244,0
190,169,93,109,54,8,118,48,72,102,162,127,226,247,0
188,170,105,112,58,6,121,68,85,114,168,135,229,242,0
188,177,108,111,48,22,127,93,97,128,170,137,226,252,0
201,183,111,119,57,31,128,96,103,130,174,139,237,262,0
205,182,117,126,72,34,125,95,103,126,182,139,251,256,0
203,186,115,123,66,36,124,91,81,127,183,138,245,250,0
205,193,109,123,67,36,129,67,52,120,180,139,239,262,0
203,191,115,132,73,37,139,59,66,119,187,145,249,272,0
203,181,121,131,62,35,147,70,89,128,187,153,252,256,0
205,170,116,117,56,34,149,62,67,110,172,145,236,244,0
204,175,114,117,66,37,143,59,69,103,174,141,236,263,0
208,192,118,131,75,35,142,82,116,142,194,150,256,271,0
207,192,110,127,71,24,139,89,113,154,188,138,258,247,0
188,173,90,110,61,20,121,71,71,119,162,113,230,224,0
165,164,81,106,58,23,117,67,72,102,147,108,207,225,0
163,166,86,110,65,29,137,80,98,115,155,117,215,230,0
174,165,88,111,67,36,146,88,93,120,173,123,231,228,0
183,168,85,111,51,26,133,76,74,111,166,130,229,236,0
192,178,98,121,47,13,124,60,73,108,160,138,236,263,0
209,192,117,134,64,25,132,69,81,122,186,147,261,284,0
221,200,123,140,71,43,136,91,84,128,200,159,264,282,0
214,194,116,140,59,37,127,91,78,116,176,153,246,269,0
208,189,113,134,56,25,119,72,70,108,167,140,244,260,0
215,193,118,133,59,13,119,67,77,109,179,139,243,251,0
205,181,108,133,39,7,118,80,88,95,170,138,229,239,0
190,173,100,128,41,14,115,84,83,93,166,136,233,252,0
200,191,114,131,66,12,117,81,75,117,186,140,252,270,0
213,198,118,135,64,4,115,80,73,121,185,142,253,264,0
201,184,97,124,51,18,109,75,67,94,166,137,239,250,0
184,181,85,110,56,35,115,62,65,95,161,129,231,242,0
177,185,88,111,52,24,113,54,68,115,160,123,226,234,0
171,173,83,107,31,10,98,60,70,102,156,116,220,237,0
174,168,78,104,34,12,98,73,81,90,162,115,219,243,0
182,181,83,113,42,13,105,83,92,104,169,122,231,233,0
178,178,85,113,26,6,105,88,79,101,167,129,232,231,0
179,171,85,104,19,4,111,83,52,77,161,134,217,240,0
189,191,95,113,41,16,110,63,41,80,161,134,218,245,0
194,213,113,134,58,24,100,44,50,94,168,134,237,253,0
191,207,119,129,52,19,102,43,58,88,167,132,231,258,0
183,198,104,115,51,22,106,47,50,70,152,125,204,249,0
183,209,87,118,53,37,99,45,54,69,150,116,204,241,0
187,212,85,115,45,40,114,57,85,96,165,117,223,234,0
184,207,100,115,44,31,130,83,95,119,171,126,225,234,0
196,218,116,137,52,28,119,84,73,117,173,137,230,253,0
220,238,122,150,54,30,115,76,66,110,178,147,236,254,0
218,238,117,142,44,34,126,83,69,106,168,138,225,237,0
206,229,126,142,36,28,112,66,46,89,155,122,218,251,0
215,236,140,150,45,22,95,31,40,82,156,128,235,269,0
226,250,133,151,65,32,107,35,69,109,160,141,250,264,0
227,248,130,150,71,41,124,66,89,131,151,146,252,268,0
225,244,135,153,65,39,123,76,90,136,143,153,250,264,0
217,250,126,151,65,39,118,73,90,132,139,146,249,243,0
208,247,115,147,59,31,109,76,88,128,135,133,252,241,0
197,232,113,143,44,19,101,68,73,121,126,135,245,249,0
186,230,97,132,45,26,110,60,63,100,113,132,226,240,0
184,235,82,124,51,41,119,73,83,91,106,118,226,236,0
185,230,95,135,54,41,115,79,97,115,112,115,240,248,0
194,236,112,150,58,34,112,55,73,133,124,133,247,253,0
205,242,121,148,52,38,118,41,63,119,120,145,241,240,0
192,228,119,139,39,39,122,54,83,111,104,135,224,234,0
176,219,113,133,33,32,116,58,84,112,100,115,214,239,0
183,215,110,122,32,29,117,56,63,102,100,102,211,237,0
187,207,111,120,28,35,129,58,58,94,93,112,203,234,0
181,209,116,135,27,36,124,51,57,96,92,130,201,240,0
191,223,120,144,33,27,100,45,51,103,104,132,218,249,0
209,229,121,142,38,22,96,45,59,111,115,133,236,261,0
204,231,120,142,39,28,106,48,73,113,115,141,231,254,0
188,227,114,141,34,30,101,56,76,109,105,131,219,228,0
186,226,108,139,39,26,86,62,75,108,112,117,230,241,0
208,243,115,148,51,34,89,57,76,118,133,132,248,270,0
210,245,119,153,53,41,102,51,55,116,123,139,241,248,0
180,229,103,145,37,34,101,52,37,90,92,114,219,220,0
172,223,97,141,27,30,89,59,49,77,90,105,213,226,0
185,225,109,145,35,25,83,52,60,94,111,117,224,235,0
189,228,115,147,42,21,85,38,57,110,123,128,239,241,0
190,225,111,142,33,30,87,40,48,109,129,134,240,247,0
196,210,106,137,22,36,86,47,45,99,128,128,228,239,0
198,210,107,141,28,33,97,48,58,100,115,129,225,233,0
196,227,120,152,42,37,118,67,76,115,110,142,230,243,0
199,221,128,153,36,41,122,79,74,111,123,143,231,250,0
200,208,119,147,38,40,117,61,61,103,132,132,232,253,0
202,221,116,148,61,47,119,56,71,122,133,139,247,253,0
204,224,118,149,51,48,113,71,91,135,136,147,249,238,0
202,207,115,148,25,43,109,69,85,123,135,140,238,239,0
202,206,117,146,39,43,114,59,70,118,137,138,244,265,0
195,204,108,129,48,40,116,72,72,124,140,133,249,258,0
179,181,84,110,22,36,117,76,79,122,130,122,232,226,0
178,179,77,110,22,37,119,59,73,121,127,124,224,231,0
193,194,89,114,37,36,113,61,64,119,134,132,231,242,0
193,186,86,108,22,40,109,77,63,106,127,118,221,223,0
180,174,79,106,20,51,124,77,71,95,115,109,208,225,0
196,191,88,114,44,47,130,71,79,102,125,127,223,253,0
216,203,93,117,42,34,119,66,76,120,140,143,242,252,0
201,190,85,109,27,34,119,66,76,123,139,134,235,235,0
182,179,81,110,38,38,125,73,76,115,133,121,226,236,0
179,178,84,106,41,36,120,72,68,110,129,120,228,230,0
180,177,79,85,17,37,105,59,57,106,126,116,225,225,0
189,184,76,85,13,34,92,49,55,109,131,116,227,238,0
198,195,86,107,37,37,99,50,64,116,137,118,232,240,0
196,198,93,113,48,56,119,64,79,113,136,117,233,238,0
200,198,91,105,41,60,112,69,77,111,137,116,236,250,0
204,196,89,109,35,43,93,53,61,113,141,119,240,252,0
197,194,92,112,36,44,106,53,59,112,142,125,239,236,0
197,198,90,109,41,62,123,76,67,105,137,125,235,231,0
205,211,87,111,53,57,115,78,81,113,136,128,246,243,0
207,216,96,114,60,53,106,59,81,124,139,128,252,250,0
208,208,102,113,50,64,114,56,60,109,135,118,236,245,0
216,204,98,113,42,55,115,68,68,101,135,119,234,248,0
216,210,94,115,49,40,107,72,91,118,151,128,257,258,0
204,211,93,113,54,47,105,60,76,125,160,123,261,253,0
199,209,87,112,56,61,100,50,57,111,146,112,245,241,0
202,213,84,115,58,61,104,57,79,113,136,112,243,243,0
200,214,91,114,60,53,117,71,103,120,137,110,239,245,0
195,199,88,108,51,49,120,73,84,103,125,106,223,236,0
196,194,85,106,43,52,116,67,65,93,117,112,218,234,0
205,202,104,112,52,61,120,76,86,109,132,123,229,251,0
210,206,114,114,60,63,128,83,94,119,141,124,234,260,0
205,201,98,111,51,54,122,70,55,108,129,108,231,245,0
201,200,97,109,39,45,107,59,48,98,123,110,233,249,0
213,211,122,112,48,52,106,65,90,105,144,140,247,281,0
223,217,124,115,64,68,120,74,108,121,169,153,254,281,0
210,208,101,107,56,74,121,78,98,128,164,136,246,249,0
193,195,88,97,42,61,110,74,86,118,147,119,237,244,0
190,191,90,100,36,45,104,65,82,108,150,119,237,257,0
204,195,90,101,39,47,102,79,97,121,168,136,252,261,0
216,206,92,102,52,62,104,95,107,137,178,144,269,272,0
211,212,98,111,59,74,117,89,99,132,176,129,269,269,0
198,207,94,103,55,79,120,85,88,120,168,117,255,247,0
192,206,81,95,49,68,99,72,80,113,156,117,243,244,0
194,204,84,104,41,52,92,51,75,107,145,114,238,247,0
196,196,89,107,38,56,105,54,84,110,141,108,232,246,0
199,195,87,103,48,66,108,72,92,120,152,110,233,250,0
195,196,82,98,51,63,106,84,101,125,164,116,244,255,0
194,189,92,93,45,70,121,107,120,127,168,127,247,256,0
200,187,106,102,49,82,131,118,119,123,167,130,236,258,0
201,196,103,115,56,72,117,87,95,114,158,115,235,263,0
198,204,98,108,55,69,116,72,83,118,159,110,252,265,0
199,203,101,108,52,81,115,85,88,124,172,129,258,265,0
204,194,97,113,47,61,94,79,88,120,173,142,252,265,0
207,189,88,100,40,36,81,61,82,115,163,130,244,262,0
198,184,87,86,36,51,88,61,72,112,157,114,230,255,0
188,178,89,82,40,67,89,71,75,110,157,109,228,250,0
192,173,85,78,39,56,91,78,91,108,157,116,233,251,0
190,168,83,77,30,46,103,82,100,109,158,123,230,249,0
182,168,87,85,31,45,105,92,110,120,163,123,235,250,0
187,183,88,89,41,47,102,98,107,126,164,118,251,257,0
201,195,85,89,42,52,101,79,77,111,161,116,250,264,0
218,195,91,104,38,53,104,67,61,102,162,129,245,277,0
223,202,99,113,33,46,106,68,69,105,166,140,249,285,0
227,224,101,108,34,37,100,56,68,91,159,129,244,285,0
250,250,107,121,44,40,98,54,73,92,156,126,244,300,0
283,263,127,139,44,41,102,68,84,105,168,142,262,325,0
307,285,144,148,42,36,95,60,62,95,172,148,262,341,0
335,322,147,168,53,49,86,53,60,86,168,153,256,366,0
367,347,155,181,66,67,98,74,95,100,179,165,273,395,0
391,355,170,175,66,72,101,84,94,110,194,162,288,412,0
417,385,177,188,66,69,86,78,71,102,199,160,299,434,0
447,422,181,213,64,62,83,76,73,95,197,173,305,451,0
477,430,201,224,49,47,84,69,75,90,197,188,302,461,0
497,439,212,231,39,34,81,59,71,87,209,193,305,486,0
509,445,212,227,44,35,82,60,84,94,219,193,315,507,0
510,434,212,210,46,38,84,63,82,104,210,190,319,498,0
507,425,188,203,37,37,81,55,58,93,192,176,318,486,0
504,432,171,209,36,34,80,43,46,70,189,166,322,496,0
501,433,189,208,39,33,81,32,33,63,200,178,328,506,0
496,420,199,204,29,37,81,33,33,68,209,191,343,508,0
506,416,187,204,27,40,86,49,57,77,214,186,361,516,0
514,416,191,206,39,38,89,49,59,89,226,185,376,535,0
517,410,205,206,46,37,85,47,51,102,250,205,408,549,0
521,401,207,203,41,40,83,74,80,118,275,226,443,561,0
517,388,206,200,36,40,81,90,101,132,280,226,447,553,0
509,380,203,202,35,34,72,61,73,128,266,207,427,544,0
511,379,204,205,41,33,72,44,56,117,267,202,439,551,0
515,367,207,196,43,36,82,53,58,113,289,218,463,563,0
509,343,201,181,29,26,72,35,34,98,285,220,455,555,0
495,326,199,174,15,11,56,20,31,85,265,209,442,544,0
500,314,205,175,23,16,65,40,59,99,278,213,456,550,0
502,309,207,176,32,34,75,51,74,121,305,218,478,564,0
494,301,207,171,28,44,77,61,98,139,318,226,491,572,0
493,278,209,167,27,43,89,81,118,160,327,248,507,573,0
486,257,203,159,27,38,96,67,67,151,326,243,506,559,0
476,259,199,156,27,40,89,31,15,111,312,216,490,547,0
480,263,206,157,30,42,88,25,33,100,308,220,490,557,0
485,245,212,152,34,32,87,28,55,124,319,245,500,570,0
473,222,211,145,35,28,79,35,63,142,324,256,501,559,0
452,209,201,135,32,45,85,75,106,159,333,257,504,546,0
429,192,183,123,27,58,102,105,146,177,343,244,509,538,0
395,171,162,109,25,63,110,107,143,178,329,215,495,517,0
364,158,141,95,27,62,112,114,141,173,308,197,483,499,0
349,143,132,80,30,54,111,111,136,173,315,199,492,497,0
344,130,135,74,26,52,108,89,100,160,320,205,489,490,1
340,130,142,82,22,48,102,66,69,137,300,204,465,471,1
337,128,146,87,29,38,94,51,76,137,286,201,452,457,1
330,123,138,80,40,39,100,53,87,148,296,197,454,449,1
317,124,121,70,37,58,109,71,92,149,306,191,452,444,1
307,116,113,65,31,68,110,84,103,145,299,183,452,444,1
304,110,113,61,38,63,110,83,108,152,289,177,446,435,1
302,122,122,63,42,57,112,86,117,160,285,179,430,422,1
304,132,139,76,37,49,114,96,136,163,290,191,433,430,1
311,128,152,83,37,45,113,92,119,167,295,197,448,442,1
306,117,143,81,37,40,105,72,87,159,290,186,442,432,1
292,110,126,71,34,38,101,70,107,156,293,178,435,425,1
283,112,117,56,29,52,112,93,142,174,308,194,450,432,1
274,106,116,51,27,68,126,106,139,191,309,201,459,426,1
264,92,114,55,33,69,133,101,126,181,288,178,437,403,1
261,92,111,50,39,68,134,101,118,154,275,162,415,394,1
260,99,113,49,40,71,128,101,113,153,276,177,418,399,1
253,97,112,56,38,69,120,97,122,164,268,174,412,394,1
254,97,112,54,38,62,121,97,127,157,255,151,390,385,1
256,97,113,51,40,63,130,105,124,148,253,155,383,386,1
249,90,104,53,41,64,135,117,138,165,264,174,389,390,1
251,97,109,58,47,68,138,124,148,178,273,174,394,394,1
264,115,117,65,56,78,144,118,131,167,271,170,396,389,1
248,106,99,59,53,80,150,114,119,154,259,163,384,371,1
221,86,80,47,42,71,148,111,113,147,251,149,372,365,1
234,98,105,61,46,70,144,97,104,145,266,162,386,388,1
261,124,134,83,55,77,144,93,118,157,289,194,408,404,1
257,120,127,83,57,75,138,99,135,166,289,191,405,390,1
245,109,118,82,58,74,130,99,122,156,272,167,392,379,1
252,119,119,80,56,83,134,109,126,156,272,160,392,391,1
260,123,126,71,61,86,147,132,151,168,285,180,401,408,1
258,115,138,69,64,78,146,131,145,165,294,199,407,405,1
251,112,134,66,48,69,130,113,129,160,285,187,391,386,1
244,109,117,62,41,64,125,113,132,166,268,159,379,381,1
250,115,118,66,55,65,127,110,130,171,280,156,399,394,1
254,121,122,63,53,72,120,98,119,163,285,170,405,385,1
235,101,109,51,39,71,126,104,125,157,266,171,376,365,1
220,88,108,54,42,65,139,112,124,155,268,176,366,369,1
223,97,117,59,45,60,135,96,103,149,274,174,373,367,1
213,91,109,52,37,58,129,90,98,143,252,150,362,346,1
192,81,90,48,38,62,135,106,129,149,251,141,361,344,1
187,81,81,48,43,67,133,118,150,164,266,152,364,351,1
193,86,87,50,48,71,128,116,134,164,258,161,355,348,1
195,93,92,52,46,69,132,100,116,152,247,155,352,343,1
201,102,88,49,42,64,135,88,111,153,256,145,361,343,1
215,105,96,49,47,67,136,94,114,165,263,150,370,358,1
224,106,112,53,53,71,134,106,123,167,264,159,377,371,1
221,112,115,55,51,68,126,104,125,164,263,169,380,370,1
219,109,114,55,46,63,126,97,114,164,263,181,378,369,1
221,102,116,55,47,63,134,91,110,156,264,175,373,367,1
217,99,109,51,51,71,128,90,126,162,262,152,370,363,1
213,104,94,51,57,80,122,101,139,187,268,145,379,366,1
207,108,83,53,56,79,122,110,126,176,271,156,378,362,1
200,106,96,52,48,75,120,103,111,140,253,156,353,345,1
203,107,113,61,46,72,120,91,108,132,233,153,340,336,1
205,106,102,66,48,66,119,89,109,143,228,142,342,332,1
190,91,85,48,39,57,115,85,106,147,228,127,343,324,1
169,70,81,27,26,50,112,72,97,144,225,132,332,320,1
157,66,79,21,17,41,101,64,82,133,212,140,317,315,1
153,71,78,25,16,34,93,69,76,118,197,135,308,302,1
157,69,86,29,18,36,108,78,92,121,206,138,310,303,1
171,69,91,28,16,41,123,90,113,141,225,144,320,314,1
179,79,86,26,18,38,113,99,113,147,221,140,326,315,1
172,84,82,35,28,37,101,82,100,142,218,140,330,312,1
161,78,81,39,29,51,111,74,98,141,226,144,329,304,1
153,68,84,24,17,67,123,95,102,135,220,138,315,296,1
157,67,85,22,17,66,122,103,107,133,218,133,311,308,1
173,75,88,37,29,50,121,88,115,156,233,138,328,324,1
174,82,91,44,27,42,116,84,104,156,229,139,328,316,1
155,71,91,36,16,56,117,95,99,121,206,129,299,296,1
149,58,87,23,19,73,129,111,124,120,206,128,291,299,1
168,63,90,24,30,72,133,117,130,146,222,141,310,312,1
177,79,100,42,37,63,125,108,116,149,228,147,325,319,1
179,94,108,55,37,66,121,107,127,155,238,150,342,336,1
198,108,117,61,37,64,122,111,122,167,258,167,355,357,1
207,111,128,68,36,48,118,95,101,161,256,181,351,352,1
196,105,122,61,32,47,116,79,110,154,234,169,337,330,1
188,99,113,50,25,60,122,82,111,146,219,150,323,319,1
184,104,111,59,27,65,124,89,97,132,218,143,314,314,1
170,100,94,58,26,62,120,89,103,134,223,145,316,304,1
157,75,82,40,19,66,128,95,105,147,219,146,314,294,1
159,75,104,50,25,68,134,94,88,134,206,143,298,291,1
174,114,122,80,35,64,132,89,93,118,197,142,286,294,1
186,139,118,86,35,61,130,101,111,127,195,142,282,296,1
190,148,117,81,34,61,129,109,119,140,192,142,271,292,1
191,164,113,83,34,64,123,95,115,129,184,133,253,287,1
200,175,109,89,33,61,116,73,86,107,175,124,249,289,1
206,171,115,89,29,58,112,55,52,90,164,120,244,288,1
195,157,103,81,23,68,112,45,39,74,153,112,224,270,1
181,151,92,77,22,72,115,47,45,71,152,106,212,260,1
188,162,107,85,28,62,109,59,63,86,162,114,227,279,1
200,163,120,87,29,58,109,79,91,101,171,134,241,301,1
209,165,122,94,36,65,124,99,103,112,180,153,246,310,1
224,186,129,116,46,61,123,92,93,116,194,159,257,314,1
226,188,128,111,35,57,109,84,92,117,190,143,258,301,1
205,162,112,85,25,59,108,91,91,114,168,118,234,278,1
191,150,96,82,34,57,110,77,67,107,161,109,223,270,1
192,152,85,87,38,52,108,55,50,94,166,112,231,268,1
196,154,86,74,30,47,109,60,54,80,162,115,226,262,1
190,145,88,59,26,51,113,71,57,78,159,116,214,254,1
180,136,83,56,31,67,125,78,69,87,166,117,219,246,1
173,138,77,58,23,70,132,88,86,98,170,112,223,244,1
172,134,75,55,14,58,121,82,89,108,167,103,227,254,1
180,136,81,62,30,58,114,68,87,116,174,107,234,260,1
191,150,87,72,43,70,118,68,77,106,186,120,231,260,1
195,160,95,74,32,67,111,65,66,96,193,127,233,273,1
202,168,108,79,31,52,107,67,77,108,201,136,254,292,1
210,177,115,84,40,44,115,75,80,112,200,145,257,290,1
203,163,108,66,33,47,113,67,61,91,187,140,234,271,1
190,144,107,55,31,55,115,68,73,85,178,132,221,269,1
198,163,115,73,45,67,132,88,98,105,182,132,231,285,1
219,186,120,90,53,69,133,83,87,116,191,138,251,294,1
224,184,121,91,48,64,120,66,71,112,193,138,250,284,1
205,175,117,88,38,64,120,78,78,105,184,137,231,269,1
194,176,116,85,40,65,119,89,86,109,181,134,233,271,1
203,176,119,86,49,57,108,83,88,118,187,128,247,276,1
201,175,117,88,51,61,113,82,89,115,190,131,240,274,1
193,174,117,86,46,69,121,87,88,111,185,138,229,277,1
188,167,111,78,42,70,118,86,84,112,175,133,229,272,1
176,162,95,73,39,69,121,83,77,107,169,121,225,256,1
165,162,94,72,33,68,124,72,67,94,167,118,214,253,1
177,160,112,77,35,62,117,64,66,87,172,129,212,266,1
189,161,115,82,42,65,116,72,73,96,175,135,219,270,1
180,163,109,79,41,79,127,89,82,104,173,135,226,263,1
170,155,115,73,38,82,134,96,95,106,179,136,224,256,1
173,156,119,75,43,78,133,93,97,105,182,129,217,249,1
180,172,118,82,47,75,124,88,87,107,175,125,218,254,1
192,181,119,87,45,67,113,75,80,107,175,129,227,265,1
199,174,118,81,46,65,114,76,80,109,183,130,231,268,1
198,171,120,83,50,84,127,109,106,118,190,130,240,277,1
203,185,124,101,52,98,135,123,125,124,197,141,246,283,1
207,193,121,104,59,92,128,96,104,124,193,144,247,277,1
203,187,117,93,66,92,127,86,100,130,190,133,248,272,1
196,175,118,91,66,101,142,103,118,128,202,134,238,269,1
189,173,118,92,61,100,141,97,92,115,192,138,223,259,1
182,173,118,82,52,90,124,78,61,98,166,135,213,249,1
178,156,116,75,40,82,119,80,74,92,164,123,203,242,1
174,144,111,80,34,75,125,83,85,96,182,119,204,247,1
172,164,113,81,40,73,123,78,89,111,193,134,234,263,1
179,178,118,85,48,81,119,85,102,126,194,143,246,262,1
183,157,118,87,48,95,127,95,110,121,187,129,218,241,1
177,148,112,83,46,96,137,98,109,116,180,119,209,238,1
177,166,114,84,46,85,135,91,98,128,189,132,234,260,1
191,178,130,91,48,80,124,84,83,133,201,146,253,276,1
195,175,134,92,45,79,122,89,92,115,195,148,241,263,1
179,165,122,85,47,88,122,98,96,100,173,136,219,246,1
170,162,122,83,53,94,118,87,84,107,165,127,214,249,1
184,171,125,89,56,85,113,69,92,117,179,132,225,260,1
197,178,120,100,66,81,109,69,95,126,194,139,241,270,1
199,177,133,109,75,90,113,81,91,132,206,148,256,284,1
213,186,153,113,67,94,121,90,101,140,225,168,273,294,1
221,193,153,112,61,91,132,102,117,148,234,174,277,293,1
209,188,149,110,71,98,129,114,125,149,228,156,268,287,1
197,183,137,112,75,101,120,112,126,145,218,143,263,280,1
197,188,116,106,65,100,124,107,123,141,207,141,263,276,1
192,180,114,93,55,101,126,103,105,133,200,140,255,273,1
183,168,135,96,59,97,117,87,84,119,198,143,245,271,1
188,178,145,112,68,82,106,73,84,119,196,148,248,278,1
197,190,128,114,62,70,101,76,95,124,196,140,253,274,1
189,192,114,111,60,83,107,85,94,124,198,130,253,258,1
179,188,119,114,71,99,117,88,91,127,194,132,249,259,1
175,173,121,110,68,98,120,102,117,134,192,130,242,257,1
169,166,112,105,54,100,124,117,128,145,193,125,241,245,1
168,176,113,112,62,100,116,96,113,142,195,129,243,251,1
172,177,120,112,67,94,98,80,104,123,198,135,243,268,1
169,165,118,93,51,92,88,95,104,115,200,138,250,267,1
162,160,115,87,44,85,90,96,107,126,198,136,250,262,1
164,163,118,103,55,80,102,89,107,128,191,128,238,261,1
174,174,122,113,66,89,107,96,94,113,192,125,233,259,1
183,184,123,115,64,96,99,96,83,106,194,133,237,266,1
186,176,128,114,62,95,100,89,89,102,187,144,243,277,1
186,175,140,111,71,100,111,95,107,118,194,151,253,289,1
197,194,146,127,76,97,113,99,118,155,221,153,268,306,1
207,206,142,145,64,82,101,98,116,156,226,153,276,307,1
200,193,144,131,55,78,96,91,100,127,203,150,264,289,1
197,179,139,112,64,88,106,86,104,130,194,146,251,282,1
189,180,125,115,71,97,109,93,115,142,199,134,251,281,1
175,182,113,116,67,98,101,87,98,119,189,119,240,268,1
175,182,115,116,71,103,106,77,90,108,183,120,233,269,1
191,192,131,135,82,115,120,83,105,129,196,128,248,287,1
191,204,144,147,85,119,115,92,109,137,200,134,253,290,1
186,207,144,143,81,118,107,105,120,133,197,136,247,278,1
191,199,137,140,79,116,117,122,135,139,199,138,249,277,1
184,186,128,140,72,108,127,120,129,141,190,136,238,277,1
171,180,117,140,67,101,126,107,110,124,180,127,222,273,1
177,188,115,135,71,99,114,94,101,117,188,122,235,279,1
189,186,122,123,71,93,101,79,104,128,198,130,252,281,1
176,167,114,110,57,92,105,81,108,127,195,130,243,268,1
158,158,98,109,45,97,115,87,102,111,191,119,232,264,1
164,167,97,115,47,89,105,80,97,116,190,120,239,271,1
172,166,109,112,55,81,87,75,90,124,188,123,243,271,1
170,157,112,102,59,90,92,76,86,118,192,124,241,272,1
170,164,108,103,62,100,111,84,107,130,198,127,246,281,1
176,180,117,112,72,101,111,91,120,146,199,125,251,279,1
174,180,115,112,78,99,100,98,108,134,191,118,242,269,1
168,166,94,100,66,98,102,109,115,125,182,113,234,257,1
162,167,85,90,57,98,112,109,115,123,172,105,228,246,1
153,164,86,84,56,94,116,85,73,96,157,93,206,241,1
146,148,79,79,56,94,122,69,64,84,159,96,197,248,1
157,157,89,89,63,96,128,87,105,125,186,114,231,271,1
170,189,118,106,69,92,122,104,116,155,208,133,265,283,1
170,189,122,106,63,95,116,101,116,155,216,139,265,278,1
171,170,112,98,64,105,117,88,125,159,219,130,262,282,1
176,179,116,107,78,107,120,86,111,153,214,121,265,289,1
173,189,116,116,76,105,119,103,103,144,204,123,263,275,1
175,179,112,111,66,106,111,114,125,150,199,130,257,270,1
184,184,118,110,72,98,92,98,117,144,197,125,249,283,1
187,205,129,125,83,95,89,78,92,128,198,115,249,288,1
191,206,137,134,85,99,100,82,109,138,210,122,261,291,1
197,200,147,123,79,99,94,86,125,159,219,146,277,307,1
187,194,149,111,68,94,95,86,116,158,221,157,275,301,1
173,181,134,113,64,92,110,94,104,145,217,144,260,275,1
168,176,131,112,72,102,124,101,107,140,209,138,253,278,1
178,178,139,110,72,111,130,106,116,145,209,148,255,291,1
186,175,140,113,60,103,126,111,121,146,215,155,259,288,1
186,180,141,113,67,95,122,112,115,140,214,154,259,292,1
186,192,138,118,80,97,114,104,102,142,208,145,259,292,1
178,180,122,117,66,94,97,91,91,142,202,131,254,264,1
163,163,112,108,53,85,91,90,92,128,198,130,243,260,1
168,176,120,113,62,86,97,101,110,133,205,142,254,289,1
178,181,117,111,64,92,96,99,110,143,207,134,258,274,1
164,166,107,95,57,95,91,83,92,124,188,111,232,241,1
151,168,107,98,66,93,99,80,101,107,183,108,220,254,1
160,185,111,115,76,93,114,89,121,125,199,127,241,277,1
169,182,117,115,68,99,112,81,96,139,199,136,251,273,1
164,167,111,97,57,95,97,55,56,118,184,120,238,261,1
158,162,94,83,48,77,102,50,64,115,186,111,239,262,1
158,161,88,83,43,74,116,74,90,137,199,118,242,265,1
156,162,96,90,43,86,114,84,81,131,196,119,237,267,1
163,168,104,91,51,88,112,78,80,114,193,121,240,274,1
189,175,123,99,57,86,121,91,113,129,207,143,248,294,1
205,182,144,118,53,94,132,108,132,153,225,164,260,308,1
191,169,135,108,54,104,141,110,123,144,221,161,253,285,1
167,136,112,78,54,110,146,110,111,122,194,149,219,257,1
172,140,116,77,52,111,143,104,103,116,191,154,215,288,1
218,190,138,111,62,104,132,87,90,126,221,172,261,343,1
261,224,157,138,74,101,121,76,75,122,234,182,287,362,1
275,233,167,145,70,102,116,69,60,105,222,173,271,365,1
286,254,163,147,64,96,108,61,62,103,216,153,261,365,1
301,274,151,145,70,90,101,67,85,113,216,138,266,362,1
302,275,147,149,72,95,98,69,97,117,217,143,277,376,1
313,281,163,167,68,97,95,61,98,127,228,161,294,398,1
331,282,178,171,66,98,103,71,105,137,232,167,294,394,1
321,266,175,152,63,102,114,87,107,132,222,162,272,380,1
313,269,170,149,64,107,110,89,101,128,220,161,264,389,1
349,311,189,178,71,95,104,83,95,130,234,175,284,427,1
393,351,212,203,75,72,97,70,77,133,246,201,300,460,1
409,369,218,208,71,61,82,52,47,110,232,212,275,458,1
417,382,220,207,70,64,77,44,39,72,201,200,244,441,1
410,386,217,208,70,67,83,43,41,58,190,185,235,429,1
387,384,209,210,65,76,89,34,34,60,186,173,224,409,1
372,383,199,205,61,90,98,43,44,52,171,165,198,391,1
367,380,188,205,63,94,98,61,54,41,162,164,181,389,1
370,374,182,210,71,84,89,57,40,50,165,162,190,388,1
370,373,188,215,80,76,84,47,29,65,177,162,209,388,1
358,370,203,212,81,78,85,50,45,79,186,165,210,390,1
348,360,202,208,77,77,76,56,51,82,188,166,202,381,1
342,352,187,212,83,77,67,51,53,81,191,168,209,369,1
322,335,174,208,86,95,85,55,69,86,187,166,201,347,1
287,299,165,175,73,118,117,67,72,71,161,148,157,304,1
260,268,155,149,62,120,126,68,62,51,129,130,125,274,1
245,261,147,159,66,111,121,71,79,59,130,130,132,276,1
236,269,150,172,74,110,124,84,98,78,148,137,148,277,1
229,267,161,166,72,105,122,80,74,79,155,144,154,277,1
239,266,170,168,67,96,113,58,54,72,155,146,164,293,1
258,271,177,177,68,90,108,54,66,77,166,147,180,303,1
245,264,172,173,71,91,108,65,71,81,173,150,181,288,1
218,253,158,167,72,99,108,65,64,75,162,148,164,272,1
214,253,156,172,70,107,110,65,61,78,154,150,159,270,1
213,244,160,172,63,111,120,76,58,81,159,152,162,261,1
198,233,150,159,62,113,122,83,63,74,156,143,156,243,1
186,230,143,147,71,121,119,87,84,73,145,128,145,220,1
172,217,142,145,71,128,119,90,79,70,124,114,120,203,1
155,206,136,147,68,125,127,80,60,50,108,109,107,215,1
155,213,142,146,72,125,139,77,64,46,116,118,122,231,1
164,210,150,142,70,132,144,95,94,66,130,130,138,224,1
164,201,146,143,71,133,147,117,117,81,138,139,140,227,1
166,211,147,149,76,132,141,120,101,89,145,144,144,227,1
166,210,148,151,68,131,128,106,78,79,143,134,144,199,1
148,194,138,143,62,127,126,96,75,57,132,120,130,194,1
135,198,126,140,72,123,131,92,89,63,132,118,128,218,1
140,206,124,141,78,120,122,82,85,78,139,117,142,213,1
140,195,125,133,73,122,120,72,63,65,140,111,145,197,1
127,175,118,120,66,126,134,71,67,54,134,119,137,198,1
117,162,107,111,57,126,139,77,85,70,132,124,138,204,1
126,168,109,112,60,129,140,88,81,83,152,116,156,213,1
129,171,115,113,67,126,143,91,71,74,155,114,153,210,1
121,165,111,112,68,112,139,84,89,80,142,117,148,200,1
125,168,113,115,65,112,141,96,106,101,150,111,156,208,1
123,169,113,112,64,129,155,116,103,98,153,103,148,215,1
106,150,101,100,69,134,159,118,109,94,141,106,144,199,1
104,149,88,100,72,127,156,107,114,107,143,105,152,191,1
116,162,88,106,67,126,156,97,95,101,150,101,151,202,1
110,155,94,104,67,128,152,89,74,74,147,103,145,205,1
105,146,90,98,71,121,146,85,76,68,145,108,146,197,1
107,143,88,91,67,113,149,83,80,70,147,110,137,193,1
103,143,101,96,64,115,149,81,62,56,148,116,129,197,1
105,157,105,109,68,123,133,76,51,52,146,112,143,194,1
102,158,91,104,69,126,126,74,76,66,127,96,131,179,1
88,142,80,102,69,130,138,86,100,79,119,92,112,178,1
93,141,85,110,70,130,139,101,103,97,149,106,158,210,1
109,139,89,97,67,116,128,95,108,124,183,116,223,229,1
99,107,90,78,56,113,134,84,113,132,185,114,227,211,0
79,85,78,72,49,124,146,88,106,115,166,104,200,193,0
77,94,60,67,49,123,141,93,97,97,159,91,192,187,0
83,95,62,61,48,117,135,83,92,92,164,92,189,193,0
85,89,75,62,49,124,141,76,87,97,168,102,195,206,0
85,94,78,68,53,130,149,85,88,92,168,104,198,203,0
91,100,80,70,51,127,146,89,94,91,170,107,193,188,0
95,102,85,66,48,125,141,82,100,107,173,112,199,197,0
90,99,83,60,53,126,146,91,116,117,173,121,205,220,0
95,96,82,63,57,131,146,111,128,121,184,132,211,227,0
101,101,84,74,54,140,144,119,120,132,191,129,220,217,0
86,106,74,78,54,138,149,119,118,133,175,112,216,207,0
79,103,61,69,56,130,151,125,134,116,164,101,203,207,0
85,95,57,56,51,127,147,137,140,121,168,102,202,200,0
82,92,56,62,55,133,141,142,129,136,169,104,207,194,0
79,97,55,75,59,134,135,135,134,130,173,107,209,201,0
77,100,58,67,52,129,138,123,137,120,174,113,207,204,0
77,100,56,56,51,129,137,115,117,113,164,111,202,202,0
81,99,60,66,56,130,127,111,113,104,161,101,202,198,0
78,96,74,73,52,130,126,103,113,100,158,95,192,185,0
77,92,79,63,46,128,132,96,86,98,153,99,185,180,0
86,102,77,70,44,126,133,101,82,95,158,103,200,200,0
91,109,78,86,44,134,139,110,115,106,169,105,209,211,0
90,104,81,79,50,143,149,116,121,121,170,112,197,205,0
98,108,85,70,51,138,140,109,98,114,161,116,197,209,0
111,108,93,76,46,126,126,106,101,111,160,118,213,217,0
116,105,92,83,48,124,128,120,126,123,168,120,212,215,0
108,112,86,80,53,135,140,134,132,126,168,122,200,216,0
102,111,95,75,57,145,148,136,123,121,162,126,207,219,0
111,104,112,80,60,139,149,131,127,128,170,135,222,221,0
121,118,114,89,67,142,153,128,141,146,179,143,229,224,0
117,131,98,89,74,155,156,131,132,144,173,135,230,216,0
106,117,83,77,67,150,146,128,113,130,165,117,224,200,0
107,118,82,72,55,139,141,118,117,132,166,113,222,208,0
119,137,87,82,53,135,143,117,133,144,182,121,230,229,0
120,134,87,84,50,132,137,122,135,148,183,122,232,223,0
113,126,81,77,50,131,134,120,123,146,171,121,225,206,0
124,138,88,88,67,133,144,122,130,147,177,119,232,218,0
137,146,102,104,79,137,149,130,152,147,185,115,236,230,0
135,140,99,99,65,134,138,120,134,142,175,112,223,220,0
131,136,99,92,59,133,136,107,113,130,165,117,220,220,0
126,137,105,93,65,144,152,122,130,122,171,122,224,234,0
130,137,100,97,58,149,155,127,125,126,178,118,225,237,0
141,143,100,103,52,132,135,106,102,139,188,119,236,234,0
151,151,118,109,66,122,128,115,124,149,194,135,251,240,0
156,152,125,113,73,134,139,135,144,147,191,144,246,240,0
154,147,117,109,64,137,146,122,129,138,183,131,230,231,0
148,147,118,101,59,132,146,115,132,138,187,134,234,237,0
147,150,119,105,67,137,143,127,142,143,193,147,241,242,0
148,147,119,114,64,139,138,119,131,139,181,136,230,233,0
141,142,116,103,56,132,136,107,126,133,173,125,220,230,0
129,136,100,88,53,132,143,120,125,136,175,126,227,225,0
115,121,80,83,50,133,133,118,112,128,164,118,217,204,0
104,115,71,80,43,127,116,89,83,102,140,95,188,183,0
111,124,78,81,41,122,112,77,81,87,135,89,190,185,0
128,138,85,87,46,121,108,90,113,111,149,105,209,204,0
129,138,89,84,44,114,104,106,126,127,156,116,207,214,0
127,126,102,86,42,111,111,105,111,117,158,126,208,209,0
142,126,121,90,39,104,106,85,98,114,158,133,220,207,0
139,128,117,87,32,92,90,64,84,111,146,126,205,206,0
122,121,93,85,31,98,102,68,80,101,136,111,187,202,0
130,116,93,89,32,109,116,78,98,107,156,114,204,205,0
142,119,104,91,27,104,104,78,100,116,162,122,216,211,0
122,110,95,84,23,97,102,84,81,99,138,115,199,206,0
117,109,94,75,32,99,120,88,86,91,141,110,197,210,0
150,135,114,90,47,101,128,84,104,110,168,129,219,227,0
163,146,119,110,44,101,121,81,94,115,169,135,224,226,0
143,137,109,97,37,99,111,77,77,103,150,112,215,204,0
133,142,102,88,45,98,107,79,100,109,156,110,218,196,0
141,152,91,106,52,104,114,89,119,123,169,125,219,206,0
145,157,89,110,47,106,112,80,88,115,159,119,214,221,0
145,166,101,101,45,98,97,60,63,101,154,109,220,218,0
147,163,112,110,49,96,101,73,83,103,159,115,220,206,0
152,151,116,113,45,102,114,95,107,118,168,125,220,218,0
155,153,115,106,36,96,112,93,106,127,173,127,231,227,0
148,151,112,107,34,85,105,75,80,112,165,118,228,213,0
141,129,112,107,36,87,106,62,63,99,155,115,216,214,0
154,129,122,103,43,95,110,58,75,111,165,135,224,241,0
184,170,141,121,53,92,107,58,82,114,181,149,234,253,0
202,202,145,143,54,86,105,66,71,95,174,139,223,246,0
197,202,126,132,45,87,111,76,71,83,152,127,203,239,0
192,200,111,122,47,89,114,73,80,80,133,121,180,231,0
202,213,117,140,52,95,116,74,78,83,131,119,165,230,0
208,223,126,148,52,99,119,80,76,95,144,127,181,247,0
208,224,124,142,60,100,128,74,79,107,168,146,212,262,0
207,218,120,142,57,103,135,71,91,114,182,153,223,250,0
198,209,118,141,44,103,133,79,110,124,170,141,214,231,0
185,204,113,129,53,107,137,81,112,120,153,121,199,223,0
180,194,109,118,74,120,146,95,108,106,152,113,191,221,0
179,191,110,114,69,119,144,110,106,110,162,120,201,228,0
178,197,105,112,52,104,128,95,96,118,168,122,206,231,0
186,198,101,105,43,94,121,78,72,105,158,120,195,228,0
199,191,113,103,36,93,119,81,57,88,143,120,190,228,0
200,188,119,111,38,93,118,78,61,94,150,120,193,227,0
191,199,114,114,43,96,125,69,67,97,158,114,190,218,0
179,198,107,100,42,96,127,72,83,94,141,105,186,209,0
169,184,95,85,38,96,123,82,102,97,132,102,177,208,0
165,175,87,92,32,99,126,83,102,97,138,101,173,208,0
161,176,86,104,40,110,125,83,92,97,133,91,176,196,0
151,181,84,103,53,119,118,81,82,95,123,81,172,180,0
151,190,93,104,51,106,120,68,77,93,136,91,175,204,0
164,194,111,112,42,92,126,66,86,95,154,110,190,243,0
171,194,115,115,45,105,124,79,88,100,149,117,192,236,0
179,191,110,103,46,115,121,82,78,100,141,117,184,222,0
187,187,110,96,44,109,124,73,82,99,147,117,190,237,0
184,192,114,103,41,105,125,68,92,107,157,122,199,247,0
184,196,116,106,36,102,118,70,83,110,158,132,200,239,0
192,193,119,106,44,97,118,69,67,105,150,133,203,243,0
188,194,115,105,50,98,125,68,69,95,141,119,196,240,0
169,185,99,88,38,97,123,66,66,81,126,102,167,207,0
149,170,83,61,22,94,118,62,56,66,106,87,143,183,0
138,163,72,56,22,97,119,52,61,62,96,74,141,183,0
136,167,70,72,34,95,115,46,62,76,112,74,150,192,0
145,184,80,85,47,101,111,53,55,86,131,88,160,210,0
156,201,93,92,48,118,123,63,71,88,137,102,173,232,0
155,189,90,84,33,111,133,75,92,94,137,108,171,219,0
141,173,85,72,27,96,127,81,79,94,133,108,160,192,0
139,175,87,71,28,99,122,76,70,98,135,104,167,202,0
145,172,82,77,29,101,124,74,83,113,141,99,182,222,0
151,171,80,81,35,93,116,74,86,114,149,98,187,227,0
156,178,89,81,34,98,116,77,100,110,157,108,185,229,0
154,173,89,80,33,105,129,80,102,111,150,111,186,227,0
154,169,85,76,36,100,119,63,66,97,141,106,185,221,0
169,188,99,87,39,93,97,48,58,83,152,112,192,232,0
186,211,122,110,41,92,98,65,95,102,172,121,214,258,0
184,204,123,109,40,97,115,82,90,107,171,121,214,255,0
180,189,115,86,37,100,119,78,66,87,155,119,197,243,0
187,194,125,81,34,96,113,76,77,93,159,129,198,255,0
194,196,134,95,33,90,114,71,71,90,165,132,200,261,0
189,186,126,94,32,93,116,62,59,76,155,121,184,245,0
179,188,116,82,38,100,114,67,85,93,152,114,185,247,0
178,198,115,82,43,97,109,75,97,117,166,122,204,262,0
181,196,117,86,41,93,102,68,75,106,167,130,201,251,0
172,184,116,81,36,98,104,62,69,92,150,119,187,234,0
158,173,111,80,31,102,115,66,77,96,146,107,181,239,0
165,179,109,83,34,101,122,68,76,94,145,107,189,242,0
176,194,109,83,40,101,116,71,80,92,143,110,200,239,0
170,194,108,82,43,104,113,82,94,102,151,118,201,240,0
158,184,111,83,40,105,121,82,87,104,155,124,192,239,0
154,188,114,84,25,100,116,58,63,92,138,115,180,230,0
158,195,112,86,22,97,108,47,70,83,129,104,177,233,0
172,195,117,85,42,106,120,71,90,94,150,114,188,247,0
184,190,120,87,49,110,126,75,72,104,161,125,204,244,0
180,191,118,101,36,99,112,50,55,96,154,122,206,247,0
182,198,128,111,43,96,109,50,72,92,161,122,207,271,0
189,197,133,107,53,114,126,77,88,115,175,127,221,279,0
182,195,117,100,38,122,136,92,93,123,176,128,223,261,0
179,205,115,104,35,111,126,80,100,109,177,132,218,262,0
194,219,135,112,51,105,120,70,107,129,186,141,234,274,0
200,215,133,110,47,104,133,78,110,157,191,139,248,275,0
190,209,128,110,37,113,145,84,102,144,189,144,242,279,0
187,212,138,112,38,122,140,76,93,120,178,153,228,269,0
182,199,131,102,37,114,126,71,101,111,160,134,210,251,0
171,186,113,93,39,102,115,69,97,112,152,111,202,251,0
169,191,114,93,43,99,113,61,70,106,156,120,200,258,0
182,199,133,97,41,105,119,63,73,105,163,134,201,257,0
195,199,143,106,42,106,122,72,91,112,167,137,207,261,0
198,204,149,115,46,101,116,71,80,112,166,144,220,275,0
195,209,142,113,42,101,111,74,81,115,165,148,225,272,0
188,201,122,102,36,113,112,86,105,130,172,138,225,262,0
189,197,115,97,38,115,114,89,108,139,183,135,233,272,0
191,202,136,105,45,112,119,86,107,142,189,150,244,288,0
187,206,150,109,47,116,130,93,120,150,191,161,251,287,0
193,204,131,109,43,117,134,97,106,140,191,155,241,274,0
194,203,117,108,46,117,125,85,77,116,173,137,223,255,0
171,205,118,98,48,117,113,81,92,109,149,115,214,239,0
167,200,121,91,43,111,116,83,106,116,146,109,213,253,0
195,195,124,107,38,105,118,71,78,111,159,128,220,286,0
201,204,124,118,40,97,103,51,63,109,160,142,231,288,0
189,215,118,114,49,92,100,51,78,114,144,131,233,264,0
192,212,113,118,54,94,117,66,89,115,134,120,221,256,0
195,205,121,119,44,102,123,84,100,124,148,124,221,258,0
193,212,136,116,51,111,116,95,120,151,165,138,243,271,0
193,214,134,117,59,115,111,86,118,160,158,144,243,276,0
181,198,120,115,39,113,111,72,86,126,130,129,207,253,0
164,178,114,98,28,107,112,72,78,102,104,117,183,228,0
152,171,110,83,37,103,118,76,96,110,98,113,188,229,0
154,181,108,96,44,108,119,73,99,121,110,110,201,247,0
179,198,121,115,47,106,108,69,89,123,125,120,217,258,0
195,200,129,114,44,93,102,66,91,122,129,132,225,255,0
192,195,123,110,42,92,109,56,82,120,131,129,223,250,0
189,198,123,113,44,101,109,41,52,105,125,124,221,255,0
180,190,121,107,36,98,101,46,57,97,114,124,216,254,0
171,181,119,108,33,96,105,65,84,107,114,126,211,246,0
184,199,135,117,48,104,115,65,85,119,123,140,225,259,0
197,211,146,117,53,108,111,65,93,128,131,154,240,272,0
192,204,138,128,48,100,94,79,111,132,133,140,235,266,0
190,208,142,140,51,95,79,71,94,127,131,126,231,254,0
194,212,149,127,55,105,84,52,67,124,125,137,229,254,0
188,198,127,114,48,112,96,52,63,115,112,132,211,249,0
166,185,105,120,41,105,93,54,61,101,95,103,201,238,0
158,181,113,115,35,98,83,56,73,105,93,101,210,241,0
167,170,117,100,24,96,90,75,94,114,104,115,207,239,0
171,173,110,103,29,96,97,79,90,109,109,118,202,237,0
177,198,125,123,54,100,94,72,87,118,123,129,225,253,0
198,220,151,146,72,100,89,73,92,141,143,147,252,268,0
211,217,162,158,71,100,94,71,84,139,141,149,249,274,0
201,201,157,141,62,118,109,75,81,123,129,149,233,268,0
180,182,137,119,49,132,114,71,67,113,132,148,222,253,0
160,169,117,112,40,119,98,47,41,105,123,131,211,244,0
160,177,112,118,54,107,93,35,45,104,102,111,200,246,0
178,195,116,124,66,117,107,52,79,113,109,115,212,250,0
194,200,120,121,63,125,120,74,112,132,136,134,240,269,0
203,205,129,118,64,121,122,88,128,162,158,151,258,288,0
200,209,125,120,65,115,113,90,124,167,158,149,254,276,0
193,198,113,117,59,115,101,79,115,144,145,136,241,262,0
189,191,112,114,61,118,95,69,107,134,138,129,239,271,0
195,203,117,120,72,116,90,52,84,132,145,127,246,273,0
198,207,109,123,71,115,87,33,73,121,144,121,243,258,0
185,195,94,115,63,122,92,44,97,117,135,115,231,249,0
172,190,89,111,62,118,101,74,114,125,132,114,225,245,0
178,194,96,109,67,108,103,86,104,127,132,121,227,249,0
198,207,119,117,74,111,99,87,107,138,151,139,245,277,0
216,231,147,135,73,108,96,95,125,159,177,158,269,305,0
220,227,140,133,66,100,95,85,110,149,175,154,272,294,0
206,200,114,115,60,111,94,58,72,118,146,130,253,262,0
191,199,111,110,63,128,102,49,71,107,126,115,230,248,0
182,204,117,111,60,129,117,61,99,115,126,114,219,249,0
175,191,109,110,48,121,113,73,111,122,127,111,221,248,0
185,202,113,115,57,121,97,76,109,135,136,112,235,256,0
202,226,120,118,72,123,92,77,114,149,150,128,247,275,0
201,218,113,115,63,112,90,88,128,149,158,140,249,282,0
206,215,126,131,55,99,85,96,136,150,164,146,261,280,0
229,230,148,145,66,102,82,85,114,156,178,164,281,293,0
226,223,140,133,64,112,82,60,75,149,174,161,270,295,0
190,194,112,109,43,114,87,49,70,117,139,126,230,263,0
166,173,94,95,37,116,92,57,85,97,113,106,211,238,0
164,176,97,100,46,118,89,53,65,96,106,102,210,234,0
158,182,101,103,47,115,86,46,57,91,104,95,201,234,0
152,177,105,95,42,108,92,72,108,102,121,112,210,240,0
173,183,113,95,49,97,97,91,134,138,152,140,239,254,0
196,203,122,117,55,91,93,67,104,158,158,129,253,267,0
197,208,127,128,54,95,91,56,94,149,155,114,255,279,0
190,198,122,118,60,108,102,82,122,149,166,127,265,279,0
179,194,104,112,63,119,104,88,140,163,165,124,263,254,0
167,188,84,108,51,116,95,74,129,166,150,104,248,237,0
164,184,88,108,52,115,101,72,102,142,137,101,240,242,0
166,194,92,114,64,125,110,71,86,114,131,103,235,237,0
165,196,88,107,56,120,108,58,80,113,130,103,226,223,0
170,181,102,99,41,99,100,53,70,119,133,115,221,229,0
174,175,117,104,42,93,96,59,74,113,129,122,218,241,0
179,184,117,114,52,99,96,63,88,115,126,115,215,243,0
184,191,112,116,57,97,96,62,90,124,130,116,227,250,0
178,189,111,115,58,92,98,70,100,127,138,126,241,252,0
181,184,116,116,57,95,95,82,116,134,150,134,245,246,0
187,186,119,117,55,99,88,85,107,137,160,138,250,251,0
183,190,113,116,55,100,92,76,82,127,154,137,251,261,0
187,185,112,114,56,108,104,67,85,126,146,132,246,258,0
193,184,119,113,58,119,106,68,107,138,154,126,245,250,0
188,191,109,115,59,115,99,69,107,140,166,120,250,252,0
183,198,100,116,61,104,90,61,100,141,167,117,258,258,0
190,203,111,117,61,109,92,73,121,154,167,118,263,257,0
191,192,107,118,50,115,107,99,126,147,160,112,245,248,0
180,172,83,109,40,104,105,94,91,119,148,105,223,238,0
175,173,80,95,46,95,88,70,83,120,152,109,236,249,0
184,180,95,100,48,102,89,70,110,143,159,120,253,260,0
174,168,87,106,37,108,98,72,102,133,148,118,236,245,0
159,163,85,97,37,98,88,54,73,116,141,108,222,240,0
177,177,108,101,48,90,81,50,78,124,153,114,240,267,0
202,187,123,119,48,95,87,77,120,140,178,139,267,298,0
208,187,127,122,53,99,93,102,139,151,189,159,275,298,0
201,189,130,112,55,95,97,97,111,142,172,151,260,271,0
191,187,129,109,50,98,97,74,84,117,157,137,247,255,0
187,179,118,111,47,98,89,44,69,98,151,129,247,256,0
173,162,101,99,38,92,86,32,63,94,138,113,232,247,0
153,150,95,83,25,101,91,53,75,107,136,110,217,245,0
164,162,107,98,38,115,90,74,96,135,163,138,246,278,0
201,184,127,122,57,109,83,82,114,165,189,159,283,301,0
202,186,138,120,53,100,87,90,116,166,187,154,275,281,0
186,177,136,114,51,101,92,92,101,142,176,154,256,263,0
189,175,123,113,48,90,84,76,89,125,168,148,253,269,0
187,170,115,109,33,77,85,60,82,122,160,131,242,277,0
181,168,115,112,34,88,101,51,61,108,151,122,223,266,0
187,175,111,116,44,101,104,49,59,92,153,121,223,262,0
195,187,112,117,43,92,91,50,87,115,164,125,249,278,0
190,186,104,117,40,84,84,48,89,140,162,122,261,274,0
179,166,92,115,42,94,90,65,84,123,154,112,237,251,0
182,163,106,116,46,100,89,85,101,114,158,124,233,262,0
192,177,122,120,49,96,77,73,85,132,161,143,254,279,0
189,166,116,109,39,93,76,55,50,118,146,132,241,260,0
184,150,122,110,35,90,78,46,57,92,142,127,224,258,0
209,171,150,142,45,84,66,34,67,106,163,146,248,282,0
225,190,151,151,46,84,67,31,51,116,174,151,258,280,0
203,178,126,124,37,94,90,48,74,107,169,145,245,271,0
184,155,113,107,35,98,105,71,113,117,169,143,248,271,0
178,142,115,108,38,97,98,85,116,134,167,134,246,252,0
175,140,114,108,36,98,91,80,109,128,150,125,225,232,0
172,137,101,110,34,99,88,66,96,108,135,116,213,237,0
163,126,85,111,36,95,90,62,81,100,138,111,216,238,0
165,128,90,109,47,95,99,58,79,114,155,120,230,239,0
199,147,113,124,53,95,97,48,75,131,177,139,252,266,0
219,148,122,144,52,89,86,47,74,128,191,145,271,287,0
198,140,119,135,55,89,85,56,91,125,182,137,268,275,0
188,140,121,127,55,100,91,61,104,133,170,133,256,260,0
200,141,121,132,44,112,95,57,91,137,173,136,255,267,0
200,135,117,122,40,111,94,45,69,125,175,139,257,275,0
190,134,117,118,49,105,88,35,69,102,170,142,250,268,0
191,131,119,134,50,111,94,53,93,103,172,145,241,265,0
194,122,117,125,39,111,106,72,94,126,177,142,242,270,0
191,126,113,108,42,96,101,61,81,131,175,133,253,265,0
195,140,111,129,53,87,88,46,94,127,178,135,260,258,0
206,144,121,147,56,95,86,51,104,133,177,134,255,261,0
210,145,132,141,58,106,90,54,95,135,170,136,256,266,0
202,144,126,141,56,111,93,43,87,131,177,141,258,269,0
190,133,117,141,45,112,94,30,78,121,181,135,248,262,0
186,127,114,137,47,109,93,27,67,99,164,128,240,242,0
187,134,118,141,54,106,97,37,77,100,157,127,244,236,0
186,131,126,138,50,104,107,48,85,118,169,127,243,242,0
185,127,121,132,47,105,114,48,83,112,169,131,244,245,0
199,134,126,140,55,100,114,59,98,113,171,143,256,259,0
212,143,144,145,58,91,106,68,108,138,191,149,272,276,0
208,141,138,144,57,93,93,57,98,144,197,149,282,270,0
202,137,116,142,52,96,91,45,86,129,180,149,269,255,0
199,133,111,128,52,95,91,30,77,115,169,137,252,251,0
195,119,102,113,52,97,91,13,78,113,170,123,250,249,0
194,105,86,111,43,101,102,21,91,125,174,128,250,251,0
189,99,85,110,36,104,112,43,85,123,172,134,243,243,0
178,102,90,104,42,100,108,41,54,92,165,123,237,224,0
180,107,96,109,50,96,105,40,57,93,168,122,241,231,0
191,113,108,114,51,97,113,66,98,124,183,137,248,244,0
196,124,110,111,49,96,122,79,114,128,191,136,253,240,0
212,144,112,125,56,93,119,67,98,126,194,139,264,264,0
238,159,131,146,67,93,105,61,92,147,211,163,280,296,0
238,153,141,135,66,92,94,59,100,148,219,173,279,285,0
223,140,139,125,61,90,95,51,107,135,212,165,264,268,0
228,140,137,137,65,94,100,45,98,144,210,161,266,281,0
233,144,127,131,68,107,111,57,100,151,216,155,278,279,0
221,137,122,113,61,119,129,87,125,144,217,153,276,262,0
217,135,136,120,61,117,132,104,126,147,216,161,273,274,0
227,148,146,133,72,114,121,88,89,142,211,166,280,290,0
230,154,129,137,68,117,122,76,77,121,201,159,275,280,0
234,155,119,142,61,102,111,73,96,123,207,153,273,277,0
246,165,136,146,68,73,84,46,79,135,220,157,286,287,0
240,167,140,142,69,64,84,26,52,118,207,150,277,271,0
219,149,125,135,50,76,103,45,78,112,190,139,259,260,0
213,136,120,124,46,89,111,70,115,132,196,144,260,266,0
220,140,126,122,62,93,113,71,119,142,201,152,256,258,0
221,156,117,126,64,98,113,58,113,140,191,148,245,240,0
214,158,107,121,56,109,110,71,120,138,184,137,249,240,0
219,156,113,121,62,104,101,78,109,139,194,139,269,269,0
240,167,121,136,72,84,83,48,86,144,216,156,284,291,0
258,178,132,148,73,71,77,37,81,143,226,170,287,285,0
255,177,135,146,67,77,89,56,89,143,220,172,293,287,0
241,164,123,134,56,85,97,60,91,145,208,167,288,287,0
229,149,119,120,50,83,93,54,96,136,199,154,267,266,0
216,137,121,112,44,82,98,66,114,135,192,143,260,250,0
205,135,114,110,40,94,114,74,115,145,188,140,263,250,0
210,141,111,111,52,103,128,69,100,136,194,145,259,251,0
222,155,118,121,61,99,126,69,104,134,204,157,268,257,0
221,154,119,125,54,99,109,69,100,147,198,152,276,260,0
212,142,110,116,48,94,92,60,77,132,187,135,264,249,0
215,148,114,114,55,83,81,50,86,121,192,136,260,247,0
214,159,112,116,60,87,75,43,107,137,193,143,260,249,0
200,158,92,113,55,95,81,33,86,129,173,123,248,241,0
192,147,79,111,48,98,86,27,68,104,163,102,243,239,0
201,143,88,109,47,97,83,30,83,102,173,110,249,241,0
207,146,104,106,49,96,91,36,80,120,180,129,257,245,0
202,148,114,110,51,104,110,53,76,129,184,136,265,250,0
199,145,117,117,53,116,113,78,99,124,189,129,263,243,0
203,152,112,116,55,115,104,86,112,126,195,130,264,242,0
214,168,115,118,63,100,97,70,96,142,203,145,277,263,0
218,172,132,121,71,91,92,53,91,149,208,153,281,270,0
210,161,136,118,72,100,91,57,103,136,205,147,271,256,0
206,161,122,120,77,110,95,74,117,133,200,150,268,260,0
214,171,116,124,79,107,102,78,123,149,207,156,278,269,0
199,156,118,115,66,107,109,71,105,143,195,141,264,247,0
175,132,105,107,56,113,115,73,82,118,169,125,232,219,0
182,136,92,109,57,106,106,69,84,120,171,130,234,218,0
194,149,100,112,56,96,93,57,88,136,185,132,249,236,0
185,144,112,113,51,92,94,53,69,111,183,130,244,247,0
191,147,117,117,55,90,92,53,72,98,183,136,248,249,0
210,167,115,123,64,87,87,61,99,135,201,145,263,257,0
210,169,119,124,62,82,89,73,110,159,209,154,269,262,0
202,155,128,118,52,85,89,70,105,147,199,159,267,255,0
198,149,128,113,48,97,95,64,106,133,185,149,260,245,0
193,151,115,111,50,104,108,68,105,126,171,125,245,237,0
184,156,108,114,51,99,107,60,85,120,167,115,233,232,0
192,165,113,118,52,96,94,49,68,118,176,129,235,238,0
201,171,116,117,47,92,93,59,75,109,183,142,244,247,0
194,162,108,111,37,78,96,74,82,103,175,129,240,239,0
191,154,96,110,37,72,89,70,71,107,162,110,224,222,0
183,149,86,108,38,76,85,62,76,95,157,102,216,206,0
167,141,82,106,37,84,93,69,97,93,166,106,215,216,0
173,148,96,109,40,89,88,67,102,125,188,122,232,246,0
196,159,112,111,46,85,73,57,104,147,200,135,256,258,0
200,158,103,110,47,77,69,61,113,137,191,132,258,248,0
192,154,87,110,42,74,72,65,97,125,186,125,251,239,0
180,151,84,109,39,67,74,51,70,123,187,116,250,236,0
175,146,98,113,35,62,84,48,70,110,186,122,246,235,0
180,133,113,107,28,74,98,64,77,97,175,138,237,235,0
180,126,107,88,27,89,98,62,71,93,163,126,232,234,0
170,130,86,86,27,89,90,48,54,83,155,104,225,221,0
164,133,81,98,22,82,89,41,49,67,148,104,213,208,0
170,137,90,103,20,72,80,38,64,78,161,121,219,222,0
187,143,88,105,28,65,65,46,77,112,188,132,238,244,0
189,148,87,114,38,67,63,59,85,121,193,125,248,240,0
178,147,97,116,40,70,77,69,94,112,184,118,245,227,0
181,147,110,113,31,66,84,79,98,117,186,130,250,239,0
197,156,120,127,32,68,84,91,107,139,202,156,267,267,0
200,167,122,136,45,85,97,96,128,147,207,155,273,257,0
185,160,105,117,48,99,103,85,111,124,182,121,249,220,0
174,151,86,106,43,98,93,60,54,100,153,94,226,219,0
189,159,86,119,44,97,89,51,48,107,161,110,238,244,0
198,160,99,120,43,100,87,69,92,127,187,141,259,245,0
184,156,112,112,43,93,80,79,111,124,192,142,254,238,0
179,161,113,117,49,81,85,83,107,128,189,130,246,245,0
187,158,98,119,44,78,90,83,110,143,191,127,254,248,0
184,151,85,113,33,81,81,69,107,141,193,123,264,238,0
175,152,86,109,43,89,78,55,90,129,190,113,255,229,0
172,152,85,108,55,97,87,55,85,126,177,106,244,231,0
168,143,68,101,40,95,87,59,90,119,168,107,243,228,0
152,125,51,89,19,93,86,69,91,108,162,99,226,203,0
142,125,62,94,25,93,91,80,83,110,159,90,202,194,0
157,155,85,111,43,81,89,72,82,113,169,102,214,222,0
176,171,100,124,50,71,83,64,92,114,176,120,243,245,0
182,165,105,134,47,78,88,62,90,126,178,124,249,241,0
188,170,111,145,46,84,92,51,79,127,180,127,247,234,0
194,180,113,140,53,82,86,48,90,123,184,127,256,241,0
192,171,98,123,56,92,85,63,99,130,179,116,255,241,0
189,161,93,119,50,101,94,71,100,131,178,112,242,232,0
192,174,109,122,48,97,100,70,102,127,191,124,251,246,0
189,177,103,126,46,97,97,66,87,118,189,118,261,257,0
188,161,79,134,36,98,95,55,61,92,164,100,235,249,0
213,173,95,142,37,83,94,51,70,84,167,115,231,272,0
252,215,124,152,50,73,86,60,94,112,200,146,270,315,0
270,233,118,161,51,82,75,55,83,122,204,145,284,316,0
279,229,117,162,48,81,63,34,63,105,193,134,273,307,0
302,245,138,166,52,75,60,32,66,100,202,135,280,330,0
325,275,149,180,53,83,72,53,76,100,205,138,285,349,0
338,291,146,183,54,93,81,68,84,111,208,153,281,352,0
341,285,150,176,54,94,80,72,88,127,217,166,285,350,0
333,275,147,174,53,94,81,73,95,118,216,153,284,341,0
324,273,136,174,55,92,93,85,109,113,217,144,286,335,0
317,264,134,165,58,98,105,87,99,123,217,150,290,331,0
314,252,136,151,60,102,104,58,56,107,210,153,283,329,0
311,253,138,150,63,86,96,41,43,88,214,159,279,327,0
307,249,134,151,63,77,95,59,73,105,216,160,284,321,0
298,234,121,143,56,88,105,69,87,122,193,145,275,310,0
285,227,112,143,52,98,115,68,87,114,174,133,264,306,0
286,227,127,149,51,99,121,83,102,118,173,147,269,309,0
285,218,138,143,41,97,125,89,96,124,168,163,266,305,0
272,213,131,138,35,88,114,73,79,119,162,162,265,304,0
267,221,122,138,44,84,103,74,91,118,154,146,283,303,0
267,225,117,139,62,95,112,90,110,125,141,131,287,295,0
257,218,118,141,71,104,116,81,104,134,135,126,276,281,0
243,208,111,132,62,100,100,58,79,129,126,123,266,267,0
226,192,96,111,45,94,87,49,64,114,104,117,250,253,0
209,180,83,102,46,97,95,49,70,109,89,100,239,237,0
213,187,83,114,59,99,114,58,89,122,105,90,256,242,0
227,200,93,123,54,98,122,78,104,135,125,105,273,268,0
229,203,111,119,47,99,120,88,105,142,123,135,275,283,0
242,205,128,119,48,96,124,82,95,141,119,157,275,280,0
257,204,134,119,41,91,126,65,80,127,119,160,270,286,0
253,198,133,116,36,90,119,57,78,117,104,148,256,295,0
250,202,126,117,47,91,109,67,91,117,97,139,258,297,0
250,204,119,120,48,90,98,66,86,110,107,148,268,295,0
239,194,119,115,38,85,89,58,69,101,99,154,257,283,0
236,192,119,114,50,91,92,62,77,111,90,143,254,277,0
241,196,112,117,61,94,105,69,84,122,102,132,262,271,0
228,192,110,112,48,88,108,69,69,108,100,126,253,257,0
226,199,114,111,41,88,99,65,76,111,95,124,255,267,0
238,211,117,118,50,87,91,59,93,134,110,134,272,290,0
230,198,120,120,46,78,90,52,83,129,107,141,263,280,0
210,176,113,108,33,79,91,55,74,112,81,126,237,248,0
195,169,91,87,31,84,83,49,64,105,67,106,225,233,0
185,171,80,83,38,86,80,45,53,88,67,103,227,230,0
186,169,90,101,42,86,83,54,57,81,69,110,234,235,0
196,170,108,112,38,76,80,44,50,92,68,115,237,244,0
196,172,117,110,37,74,87,34,43,93,68,121,231,245,0
191,172,103,111,47,86,101,43,53,85,69,122,236,243,0
192,179,97,116,49,78,91,33,45,86,70,115,242,251,0
208,193,117,121,43,64,70,9,25,88,73,118,245,268,0
229,195,134,125,46,71,73,16,41,90,77,135,253,267,0
227,183,136,120,48,75,83,35,53,93,74,144,245,248,0
212,179,131,116,44,66,82,38,45,88,60,129,226,244,0
210,181,122,119,43,71,82,41,46,84,58,112,222,249,0
205,178,120,116,44,81,82,36,41,87,65,115,228,242,0
193,170,116,113,41,83,83,20,25,82,58,116,224,228,0
183,155,95,110,39,84,85,13,17,64,42,96,211,212,0
172,143,84,94,34,80,89,19,33,59,43,94,199,207,0
169,148,88,91,28,78,93,38,56,68,45,110,194,216,0
176,161,87,102,38,82,88,49,66,80,44,104,205,217,0
179,165,89,107,50,83,78,44,67,97,57,99,220,214,0
174,163,90,104,43,83,81,46,70,99,57,111,222,224,0
174,162,89,103,31,85,86,59,80,92,50,115,223,231,0
177,160,89,105,34,75,75,51,75,99,58,103,234,226,0
184,166,90,106,37,62,67,31,51,94,64,93,231,223,0
191,175,87,111,34,67,77,27,35,76,61,97,222,233,0
189,175,89,111,35,67,86,30,49,82,66,112,235,242,0
188,173,102,110,43,64,87,32,55,95,70,123,249,246,0
189,172,113,114,40,72,92,33,43,92,70,130,248,246,0
192,168,109,111,26,70,90,41,53,91,77,134,249,246,0
206,179,109,110,26,64,74,47,56,98,77,124,256,257,0
218,196,119,124,38,67,65,42,45,86,64,111,244,260,0
226,194,119,140,37,65,78,38,44,67,55,117,224,264,0
246,204,118,143,34,63,78,28,24,70,63,134,230,292,0
273,241,129,148,42,70,67,16,6,79,71,140,247,317,0
288,261,139,151,39,69,68,25,34,73,70,135,258,322,0
304,256,139,156,28,62,64,43,62,77,77,135,273,334,0
317,265,127,165,26,60,57,34,51,92,83,132,285,346,0
316,281,114,165,26,51,57,12,39,88,76,127,278,347,0
325,286,125,164,33,47,57,11,28,71,82,138,281,369,0
351,305,151,181,46,52,60,18,24,69,101,164,296,396,0
369,321,157,186,44,46,65,23,36,74,105,179,291,399,0
372,305,147,171,25,34,62,23,24,66,97,177,288,407,0
387,303,150,172,18,35,56,22,2,62,96,172,304,429,0
412,334,159,183,28,43,57,18,8,76,104,163,321,434,0
404,332,147,176,27,55,65,27,40,85,104,148,320,417,0
383,314,133,164,22,55,66,36,48,69,97,143,312,416,0
408,332,150,179,24,34,50,16,29,67,108,167,320,442,0
448,353,181,206,25,30,39,0,23,96,128,196,339,470,0
460,348,188,211,24,41,50,4,45,105,138,204,361,485,0
459,331,180,200,23,37,63,20,51,93,142,204,373,485,0
459,326,183,201,21,38,61,23,38,95,136,200,359,478,0
459,333,185,206,20,50,65,37,41,104,127,194,347,476,0
446,326,172,193,23,50,79,48,38,97,128,185,358,466,0
417,303,147,175,32,50,81,33,34,84,124,164,357,440,0
402,297,119,170,36,63,78,39,63,88,116,144,348,434,0
413,302,121,175,37,74,84,63,90,117,140,157,381,471,0
437,293,150,175,43,78,89,61,89,151,179,199,434,511,0
464,298,172,175,40,65,74,49,91,161,197,225,460,531,0
485,315,190,192,24,47,58,59,99,167,208,239,474,543,0
489,307,208,201,18,45,67,79,97,179,214,251,476,542,0
481,283,203,188,15,51,86,87,95,171,202,237,459,530,0
464,262,182,169,2,48,95,75,84,154,190,215,448,522,0
444,241,161,150,1,43,97,63,63,144,187,207,448,519,0
433,234,148,148,6,41,98,70,71,145,187,203,449,515,0
430,243,147,162,12,41,92,65,91,151,181,190,447,511,0
415,243,140,162,20,52,79,38,68,139,170,178,429,492,0
391,231,118,143,29,63,71,30,33,112,156,172,409,464,0
375,214,109,138,26,48,60,43,49,108,154,174,415,463,0
365,199,122,140,20,40,50,55,80,130,164,184,429,470,0
369,198,137,141,23,52,55,73,86,143,177,191,436,470,0
402,206,154,153,24,53,61,84,98,155,195,201,456,495,0
421,206,168,154,17,41,61,77,102,173,204,214,471,519,0
407,207,166,146,14,41,67,75,84,176,205,216,472,513,0
389,205,155,146,15,54,75,85,92,181,214,208,475,493,0
383,203,146,147,18,61,84,94,118,193,217,199,472,495,0
379,201,133,136,18,67,91,86,114,183,208,194,468,500,1
355,184,109,118,12,72,87,59,86,156,192,179,462,473,1
316,168,99,117,15,72,84,51,87,150,182,159,449,437,1
307,159,109,123,15,67,90,81,113,171,184,163,445,434,1
313,144,119,121,9,60,95,109,123,189,194,179,451,438,1
296,135,118,116,16,61,95,109,106,183,197,178,453,421,1
277,126,112,114,28,62,98,99,97,173,190,173,445,403,1
280,106,116,106,24,74,106,99,105,178,188,177,434,404,1
281,96,114,97,26,96,114,105,115,180,190,179,436,408,1
261,94,92,87,31,102,118,110,131,178,183,170,440,392,1
240,77,78,79,21,100,117,111,131,176,169,166,425,376,1
241,75,80,78,19,95,103,103,107,172,174,166,417,380,1
246,99,81,82,22,72,78,84,90,175,190,165,433,390,1
240,110,84,92,20,55,69,77,100,183,194,167,449,385,1
236,105,93,100,31,65,80,87,114,188,195,165,446,375,1
236,100,94,98,38,70,85,91,110,187,202,166,437,366,1
229,90,91,92,23,61,82,95,116,185,195,169,426,360,1
225,79,92,89,15,67,93,103,120,178,176,164,413,353,1
221,72,89,85,23,72,98,86,91,162,164,154,400,343,1
200,58,84,73,23,67,93,68,72,150,161,147,393,332,1
186,43,75,60,20,67,93,83,84,150,159,144,388,325,1
189,48,63,65,18,70,90,87,78,147,154,141,378,318,1
183,55,58,76,13,66,83,72,74,138,148,134,369,314,1
177,58,61,74,12,61,83,86,98,154,156,131,379,323,1
182,60,61,75,14,70,90,105,100,173,173,142,394,327,1
177,50,65,74,16,81,94,96,95,166,168,141,388,312,1
170,43,78,64,18,73,87,91,116,166,161,133,377,310,1
182,61,87,71,25,63,80,92,108,169,166,141,379,325,1
190,75,86,82,33,71,87,79,74,154,158,144,374,315,1
181,57,81,73,24,78,101,76,73,132,138,126,360,302,1
178,41,80,65,9,70,106,81,85,125,133,122,351,312,1
187,54,85,70,10,67,108,77,73,127,143,138,354,317,1
189,50,89,70,10,70,112,79,69,137,152,148,364,316,1
188,38,95,73,7,68,110,95,96,162,165,151,373,327,1
209,66,113,84,15,64,100,99,107,171,167,150,371,334,1
221,94,114,88,20,67,91,83,75,141,146,140,346,311,1
197,81,92,85,11,68,87,70,55,107,124,125,314,283,1
186,78,84,81,12,69,93,78,76,116,121,122,308,287,1
206,98,95,92,22,72,107,89,93,147,139,135,329,315,1
216,117,96,113,24,75,112,81,88,155,158,141,345,316,1
206,124,83,117,21,72,106,74,83,144,142,125,326,286,1
202,119,85,110,22,76,109,79,80,130,117,110,301,283,1
225,121,105,113,27,92,112,86,82,119,123,122,304,309,1
251,140,120,118,28,89,110,87,83,119,138,140,323,336,1
260,153,118,120,28,75,112,76,66,129,140,144,339,352,1
265,152,117,125,29,78,106,60,52,129,145,145,342,358,1
285,146,131,124,28,79,88,48,56,121,154,158,345,378,1
